File: Burgel/15453660/Composition_Dataset/ML_11_near-equiatomic_Ir-Pd-Pt-Ru_EDX.csv
Index,Ir,Pd,Pt,Ru
1,54.64,12.6,7.36,25.39
3,50.17,11.41,7.94,30.48
5,46.76,9.59,8.76,34.88
7,41.98,8.11,9.8,40.1
9,37.1,7.54,10.76,44.6
11,32.04,6.21,11.82,49.93
13,53.12,13.85,7.79,25.24
15,48.92,12.36,9.13,29.6
17,44.46,10.91,9.82,34.81
19,40.23,9.35,11.16,39.25
21,35.83,8.02,12.25,43.9
23,31.4,7.36,12.82,48.42
25,55.22,17.03,7.67,20.08
27,50.75,15.55,8.85,24.85
29,46.69,13.69,10.29,29.34
31,42.94,11.94,11.33,33.78
33,38.87,10.8,11.97,38.36
35,35.37,8.94,13.1,42.59
37,29.89,7.57,14.09,48.44
39,25.67,6.07,15.42,52.84
41,51.78,19.2,8.83,20.19
43,48.66,16.89,9.94,24.51
45,44.87,15.29,11.15,28.69
47,40.84,13.5,12.41,33.25
49,37.95,11.28,13.37,37.4
51,33.61,9.74,14.64,42.01
53,28.9,8.75,15.43,46.91
55,25.02,6.89,16.46,51.64
57,54.1,21.83,8.12,15.95
59,50.25,20.49,9.7,19.56
61,45.99,19.14,10.95,23.92
63,43.05,16.58,12.15,28.21
65,39.64,14.15,13.42,32.8
67,36.07,12.59,14.71,36.63
69,32.1,10.6,16.08,41.22
71,28.48,8.38,17.14,46.0
73,23.79,7.38,17.96,50.87
75,18.95,5.75,19.56,55.73
77,49.12,23.29,9.95,17.64
79,45.81,21.51,11.24,21.44
81,42.38,19.7,12.67,25.25
83,39.11,16.91,14.16,29.81
85,36.39,14.53,15.43,33.66
87,32.93,12.29,16.55,38.23
89,29.01,10.53,18.05,42.41
91,24.74,9.23,19.1,46.93
93,20.6,7.71,20.5,51.19
95,48.9,28.56,8.98,13.56
97,46.67,25.5,10.65,17.18
99,43.92,23.44,12.22,20.42
101,40.75,20.89,13.53,24.83
103,37.68,18.78,15.11,28.43
105,34.43,16.23,16.59,32.75
107,30.87,14.04,18.24,36.85
109,27.41,11.59,19.62,41.38
111,24.06,9.51,20.91,45.52
113,19.7,7.13,22.5,50.66
115,16.09,6.55,23.48,53.89
117,45.94,28.88,10.64,14.54
119,42.49,26.97,12.32,18.22
121,40.22,24.24,13.94,21.6
123,37.39,21.36,15.75,25.5
125,34.19,18.8,17.4,29.61
127,31.82,16.16,18.53,33.49
129,28.74,13.7,20.24,37.32
131,24.61,10.75,22.13,42.51
133,19.59,9.27,23.54,47.6
135,16.72,7.54,24.96,50.79
137,44.03,32.38,10.67,12.92
139,42.15,29.95,12.28,15.61
141,39.05,27.33,14.47,19.15
143,37.15,24.51,15.81,22.53
145,34.33,21.66,17.48,26.53
147,31.95,18.21,19.15,30.69
149,28.41,16.05,20.78,34.76
151,24.51,13.32,23.11,39.06
153,21.38,10.3,24.87,43.45
155,17.19,8.72,26.22,47.87
157,14.05,7.13,27.5,51.32
159,41.26,32.89,12.7,13.15
161,38.47,31.12,14.29,16.12
163,36.18,27.84,16.25,19.73
165,33.83,24.49,18.11,23.58
167,31.17,21.67,19.7,27.45
169,28.55,19.31,21.18,30.96
171,25.67,16.01,23.02,35.3
173,21.96,13.3,25.28,39.46
175,17.87,10.63,28.11,43.39
177,15.47,7.73,29.03,47.78
179,38.5,37.73,12.4,11.38
181,37.74,33.84,14.11,14.32
183,35.12,30.79,16.46,17.63
185,33.61,27.28,18.31,20.8
187,30.68,24.75,20.04,24.53
189,28.59,21.68,21.69,28.04
191,24.94,18.94,23.83,32.29
193,22.04,14.97,26.35,36.64
195,18.94,12.96,28.06,40.04
197,15.31,9.92,30.05,44.72
199,12.69,7.92,32.35,47.03
201,34.9,38.01,14.6,12.49
203,33.24,34.97,16.73,15.06
205,31.69,31.27,18.6,18.44
207,29.54,28.44,20.22,21.81
209,27.86,24.97,22.05,25.12
211,24.69,21.84,24.33,29.14
213,22.03,18.85,26.64,32.49
215,18.51,14.86,29.46,37.17
217,15.93,12.06,31.6,40.41
219,12.39,9.53,33.76,44.32
221,32.39,42.78,14.09,10.74
223,32.05,38.26,16.87,12.83
225,29.87,35.33,18.86,15.93
227,28.22,31.93,20.98,18.87
229,26.25,28.15,23.1,22.5
231,24.43,24.63,25.37,25.57
233,20.88,21.63,27.71,29.78
235,18.83,17.96,29.89,33.33
237,15.68,14.18,32.64,37.5
239,13.88,11.0,34.7,40.42
241,10.88,8.71,36.98,43.42
243,28.93,41.14,17.66,12.27
245,27.48,37.44,19.96,15.13
247,26.07,33.97,22.18,17.78
249,24.68,30.4,23.78,21.14
251,22.22,26.14,26.97,24.67
253,19.73,22.59,29.06,28.62
255,16.81,18.74,32.59,31.86
257,15.4,14.91,34.64,35.04
259,12.47,11.44,37.76,38.34
261,26.57,46.4,16.74,10.29
263,25.23,42.04,19.89,12.84
265,24.29,38.1,22.51,15.1
267,22.78,34.28,24.85,18.09
269,21.31,30.34,27.44,20.91
271,19.27,25.72,29.87,25.14
273,17.11,22.28,32.15,28.47
275,14.47,17.78,36.06,31.69
277,12.61,14.2,38.85,34.34
279,10.31,9.9,41.82,37.98
281,22.62,44.56,21.0,11.82
283,21.3,40.92,23.41,14.37
285,20.29,36.32,25.63,17.76
287,18.97,32.32,29.02,19.68
289,17.24,27.74,31.71,23.32
291,15.11,22.64,35.55,26.7
293,13.74,19.01,37.92,29.33
295,11.98,13.97,40.94,33.11
297,20.74,46.43,21.56,11.28
299,19.04,42.26,24.7,14.0
301,18.0,38.34,28.03,15.64
303,17.37,33.56,30.52,18.55
305,15.76,29.06,33.81,21.37
307,13.56,23.69,37.55,25.19
309,12.72,18.75,40.84,27.68
311,10.81,14.82,44.26,30.11
313,17.44,44.39,25.7,12.47
315,16.95,39.97,28.39,14.69
317,15.85,35.98,31.38,16.79
319,14.02,30.38,35.79,19.8
321,13.41,24.63,39.61,22.35
323,11.58,19.36,43.46,25.6
325,15.22,46.41,26.71,11.66
327,14.9,41.84,29.43,13.83
329,13.16,36.61,34.06,16.18
331,13.19,31.08,37.24,18.5
333,11.89,25.34,41.62,21.14
335,10.31,19.38,46.29,24.02
337,12.76,39.67,33.71,13.86
339,13.13,34.16,37.09,15.62
341,11.78,27.77,42.63,17.82
342,10.61,25.37,44.74,19.28