File: Burgel/15453660/Composition_Dataset/ML_15_near-equiatomic_Cu-Pd-Pt-Ru_EDX.csv
Index,Cu,Pd,Pt,Ru
1,55.91,12.22,8.82,23.05
3,50.76,11.06,9.66,28.52
5,45.96,9.33,11.24,33.48
7,41.0,7.88,12.45,38.68
9,34.92,7.29,13.48,44.3
11,29.43,6.2,14.63,49.73
13,53.09,13.49,9.64,23.78
15,48.99,11.99,10.9,28.12
17,43.91,10.68,12.16,33.26
19,38.42,9.17,13.77,38.64
21,33.14,7.92,15.06,43.88
23,28.2,6.85,15.91,49.04
25,54.69,17.64,9.17,18.49
27,50.34,15.7,10.49,23.47
29,46.74,13.46,12.22,27.58
31,41.74,11.78,13.66,32.82
33,36.92,10.43,15.22,37.43
35,31.88,8.82,16.54,42.76
37,26.78,7.28,17.68,48.26
39,21.7,6.72,18.62,52.97
41,52.35,19.31,10.09,18.25
43,48.25,17.44,11.71,22.6
45,43.87,14.98,13.52,27.63
47,39.88,13.28,15.1,31.74
49,35.04,11.22,16.59,37.15
51,29.39,9.89,18.1,42.62
53,24.42,8.04,19.75,47.79
55,19.44,6.59,20.94,53.02
57,53.41,22.8,9.57,14.22
59,49.5,21.24,11.35,17.91
61,45.77,18.71,13.06,22.47
63,41.57,16.65,14.63,27.15
65,37.17,14.74,16.33,31.75
67,33.13,12.09,18.08,36.71
69,27.43,10.67,19.96,41.95
71,22.92,9.26,21.58,46.25
73,18.15,7.41,22.85,51.59
75,14.63,6.22,23.19,55.96
77,48.65,24.01,11.47,15.87
79,45.44,21.63,13.29,19.64
81,41.07,19.38,15.14,24.41
83,37.02,16.94,16.92,29.13
85,32.67,14.91,18.99,33.44
87,28.23,12.53,20.7,38.54
89,23.67,10.93,22.31,43.1
91,18.94,8.68,24.37,48.01
93,15.06,7.59,25.31,52.04
95,48.4,28.75,10.49,12.37
97,46.11,25.78,12.2,15.9
99,42.2,24.46,14.36,18.98
101,38.33,21.42,16.25,24.0
103,34.44,18.96,18.35,28.24
105,30.57,16.42,20.19,32.82
107,25.86,13.85,22.61,37.67
109,21.81,11.69,24.49,42.01
111,17.41,9.89,26.1,46.59
113,13.69,7.55,27.23,51.53
115,11.33,5.7,27.16,55.8
117,44.21,30.03,12.28,13.48
119,41.01,27.65,14.5,16.84
121,37.85,24.26,16.59,21.29
123,34.0,22.09,18.85,25.06
125,30.7,18.52,21.22,29.55
127,26.25,16.32,23.07,34.36
129,21.84,13.68,25.36,39.12
131,17.98,10.93,27.29,43.8
133,14.05,9.2,28.64,48.11
135,11.3,6.79,29.84,52.07
137,41.94,34.19,12.34,11.53
139,39.38,31.64,14.52,14.46
141,37.0,27.65,17.09,18.26
143,33.13,25.41,19.09,22.36
145,29.85,21.95,21.44,26.76
147,25.83,19.31,23.69,31.16
149,22.14,16.27,25.87,35.72
151,17.78,13.03,28.21,40.98
153,15.26,9.88,30.22,44.64
155,11.37,8.7,31.89,48.04
157,9.31,6.07,32.49,52.13
159,37.94,34.87,14.5,12.7
161,35.33,31.91,16.93,15.84
163,32.27,28.29,19.61,19.83
165,28.24,25.88,21.88,24.0
167,25.56,22.14,24.22,28.08
169,21.53,18.77,26.94,32.76
171,17.75,15.64,29.18,37.42
173,14.71,12.98,31.51,40.8
175,12.16,9.98,32.82,45.04
177,9.43,7.88,34.17,48.52
179,35.39,39.38,14.33,10.9
181,33.33,35.7,17.27,13.71
183,30.19,32.61,19.97,17.23
185,27.74,28.77,22.42,21.06
187,24.64,25.57,24.99,24.8
189,21.43,21.69,27.46,29.41
191,18.66,17.6,29.83,33.91
193,15.48,14.08,32.69,37.74
195,12.98,10.99,34.74,41.28
197,10.14,9.17,36.16,44.54
199,8.65,7.18,37.07,47.1
201,31.05,39.82,17.06,12.07
203,28.78,36.61,20.1,14.52
205,27.11,32.23,22.48,18.17
207,23.94,28.62,25.36,22.08
209,20.48,25.41,28.26,25.86
211,17.77,21.43,30.51,30.3
213,14.51,17.03,34.04,34.42
215,12.55,13.42,36.01,38.02
217,9.72,10.83,38.22,41.22
219,8.19,7.87,39.45,44.49
221,28.99,44.37,16.16,10.48
223,27.13,40.09,20.14,12.63
225,24.81,36.91,22.63,15.65
227,22.79,32.98,25.65,18.58
229,20.03,28.33,28.75,22.89
231,17.1,24.63,31.58,26.7
233,15.07,20.17,34.58,30.18
235,12.06,16.33,37.34,34.28
237,10.73,12.0,39.44,37.83
239,8.29,9.9,41.21,40.6
241,8.01,7.23,42.35,42.42
243,24.26,42.39,21.21,12.14
245,22.37,38.59,24.25,14.78
247,20.4,34.48,27.24,17.88
249,18.04,30.05,30.5,21.41
251,15.8,26.28,33.39,24.54
253,13.35,21.05,36.83,28.77
255,11.15,16.44,39.92,32.49
257,8.96,13.12,42.2,35.72
259,7.94,9.81,43.62,38.64
261,22.47,46.83,20.42,10.28
263,20.74,42.43,23.99,12.84
265,19.44,38.35,27.51,14.7
267,17.58,33.43,30.63,18.35
269,14.54,29.26,34.31,21.89
271,13.12,24.4,37.55,24.92
273,11.33,18.88,40.91,28.88
275,9.73,15.36,43.59,31.31
277,7.68,11.71,46.3,34.31
279,6.89,9.05,47.69,36.37
281,17.7,45.0,25.23,12.07
283,16.63,40.35,28.81,14.2
285,15.19,35.14,32.06,17.6
287,12.79,30.9,36.14,20.17
289,11.88,25.67,39.33,23.12
291,9.94,20.03,43.16,26.87
293,8.21,15.62,46.57,29.6
295,7.59,11.89,48.91,31.62
297,16.07,46.01,26.54,11.38
299,14.75,41.42,30.56,13.27
301,13.85,36.25,34.09,15.82
303,11.64,31.78,37.73,18.85
305,10.22,27.02,41.74,21.02
307,9.03,20.57,45.8,24.6
309,7.61,16.31,49.27,26.82
311,7.03,12.04,51.84,29.09
313,13.18,42.58,31.3,12.94
315,11.86,37.59,35.78,14.76
317,10.12,32.35,40.11,17.42
319,9.02,26.77,44.55,19.67
321,7.69,20.6,49.09,22.62
323,6.86,16.36,52.39,24.39
325,11.89,44.44,32.91,10.75
327,10.37,38.12,37.82,13.69
329,9.21,33.66,41.41,15.73
331,8.75,26.71,46.62,17.93
333,8.07,21.82,49.8,20.3
335,6.36,16.25,54.98,22.4
337,8.68,36.35,41.28,13.69
339,7.51,31.3,46.26,14.92
341,6.79,24.75,51.07,17.39
342,6.18,21.78,53.27,18.78