File: Burgel/15453660/Composition_Dataset/ML_14_Pd-rich_Cu-Pd-Pt-Ru_EDX.csv
Index,Cu,Pd,Pt,Ru
1,8.21,75.38,6.87,9.54
3,8.81,71.12,8.92,11.14
5,7.92,66.74,10.94,14.4
7,6.97,62.44,12.56,18.03
9,6.95,56.61,14.74,21.7
11,5.25,52.87,17.41,24.47
13,7.99,76.44,7.43,8.15
15,6.14,73.98,8.87,11.01
17,7.51,68.79,10.69,13.01
19,7.45,63.68,13.21,15.65
21,6.43,57.6,15.45,20.52
23,6.36,52.17,18.06,23.41
25,6.25,82.28,6.32,5.15
27,6.54,78.66,7.02,7.77
29,5.49,74.65,9.74,10.11
31,6.92,69.99,11.1,11.99
33,6.24,65.5,13.58,14.68
35,6.28,60.11,15.85,17.77
37,5.93,52.78,18.43,22.85
39,4.57,47.18,21.61,26.64
41,6.47,82.74,6.14,4.66
43,6.21,79.85,7.55,6.39
45,5.32,76.81,9.51,8.37
47,5.99,72.21,11.42,10.38
49,5.51,65.96,14.18,14.34
51,4.26,61.57,17.52,16.65
53,4.9,55.01,20.62,19.48
55,4.17,48.86,23.15,23.82
57,5.88,86.93,4.32,2.87
59,5.8,83.27,6.04,4.89
61,5.31,81.31,7.66,5.72
63,5.04,76.94,9.7,8.31
65,5.49,73.44,11.53,9.54
67,4.23,69.34,14.7,11.73
69,3.95,62.29,18.04,15.72
71,4.22,56.44,20.6,18.74
73,2.36,50.75,24.38,22.51
75,3.66,43.14,26.07,27.13
77,4.27,86.8,5.26,3.67
79,5.32,83.21,6.42,5.05
81,4.54,80.91,8.47,6.08
83,4.32,77.01,10.85,7.82
85,4.53,72.29,13.29,9.88
87,4.28,67.21,16.43,12.08
89,4.21,61.98,18.76,15.05
91,2.69,55.07,23.29,18.94
93,2.2,48.38,26.33,23.09
95,4.27,88.94,4.27,2.52
97,4.18,87.25,5.36,3.21
99,4.02,84.98,6.97,4.02
101,4.16,81.74,8.67,5.43
103,3.88,77.99,10.56,7.57
105,4.31,72.87,13.46,9.36
107,3.16,69.13,16.38,11.32
109,3.67,62.19,20.16,13.98
111,2.9,55.85,23.01,18.24
113,2.95,49.17,27.36,20.52
115,,,,
117,3.64,88.95,4.83,2.59
119,3.96,86.51,6.15,3.38
121,3.54,84.62,7.63,4.21
123,3.92,80.95,9.66,5.46
125,3.73,77.43,11.74,7.1
127,3.72,73.2,14.49,8.6
129,2.47,67.84,17.48,12.22
131,2.7,60.71,22.06,14.52
133,2.26,53.88,25.32,18.55
135,2.37,46.69,29.71,21.22
137,3.24,90.16,4.26,2.34
139,3.51,88.36,5.43,2.71
141,2.91,86.52,7.08,3.49
143,3.46,82.87,8.91,4.77
145,2.98,80.09,10.85,6.08
147,2.72,76.21,13.25,7.81
149,3.26,71.14,16.68,8.93
151,2.95,64.85,20.07,12.13
153,2.42,57.69,24.75,15.13
155,2.24,51.01,28.92,17.82
157,0.0,44.46,34.05,21.5
159,3.02,90.15,4.62,2.2
161,3.02,87.69,6.39,2.9
163,2.66,85.95,7.86,3.52
165,2.52,82.52,9.84,5.12
167,3.04,78.91,12.05,6.0
169,3.37,73.93,14.92,7.78
171,2.39,69.56,18.14,9.91
173,2.36,62.35,23.26,12.03
175,1.99,56.07,27.81,14.13
177,2.4,48.63,31.85,17.12
179,2.39,91.44,4.3,1.88
181,2.6,89.75,5.69,1.96
183,2.5,87.67,7.12,2.71
185,2.23,84.98,8.9,3.88
187,2.15,82.46,11.05,4.34
189,2.06,78.48,13.46,5.99
191,2.43,73.04,16.79,7.75
193,2.27,67.4,20.75,9.57
195,1.94,59.16,25.5,13.39
197,1.83,50.97,30.69,16.51
199,0.0,46.4,35.24,18.36
201,1.67,91.13,5.09,2.11
203,2.14,89.14,6.5,2.22
205,2.6,86.53,8.01,2.87
207,2.03,83.92,9.83,4.22
209,1.86,80.95,12.37,4.82
211,2.38,76.4,15.55,5.67
213,2.18,71.43,18.69,7.7
215,2.06,63.55,24.15,10.24
217,2.37,56.55,28.56,12.52
219,0.0,49.29,35.29,15.42
221,1.64,92.62,4.34,1.4
223,1.99,90.46,5.67,1.88
225,2.05,88.39,7.18,2.38
227,1.78,86.13,9.01,3.08
229,2.08,82.66,11.46,3.8
231,1.4,79.14,14.14,5.32
233,1.71,74.58,17.52,6.19
235,2.13,67.67,21.63,8.57
237,0.0,62.37,26.68,10.94
239,0.0,53.18,32.81,14.01
241,4.72,39.34,40.56,15.38
243,1.94,90.47,5.81,1.78
245,1.9,88.56,7.23,2.31
247,1.62,86.43,9.15,2.79
249,1.91,83.04,11.55,3.5
251,2.06,79.9,14.11,3.93
253,1.64,75.62,17.34,5.4
255,0.0,69.9,22.44,7.66
257,0.0,62.23,28.33,9.44
259,0.0,53.84,34.37,11.79
261,1.5,92.23,5.21,1.07
263,1.63,90.08,6.49,1.81
265,1.03,88.48,8.41,2.08
267,1.26,85.8,10.46,2.47
269,0.9,82.48,13.15,3.46
271,1.16,78.43,16.16,4.25
273,0.0,73.44,20.51,6.05
275,1.15,65.94,25.56,7.35
277,1.42,58.23,30.85,9.49
279,2.77,49.85,36.69,10.69
281,1.26,90.25,6.72,1.78
283,0.9,88.28,8.59,2.23
285,1.29,85.51,10.46,2.73
287,1.31,82.56,13.02,3.11
289,1.25,78.65,16.12,3.97
291,1.26,72.65,20.18,5.92
293,0.0,66.3,26.73,6.97
295,1.66,58.04,31.99,8.31
297,0.93,90.93,6.71,1.43
299,1.08,88.45,8.67,1.79
301,1.59,85.92,10.71,1.78
303,1.38,82.35,13.23,3.04
305,1.33,78.46,16.62,3.58
307,0.0,73.96,21.61,4.42
309,1.7,66.02,26.59,5.69
311,1.51,58.73,33.33,6.43
313,0.66,88.94,8.66,1.74
315,0.91,86.44,10.63,2.02
317,1.41,82.62,13.12,2.85
319,0.0,79.97,17.17,2.86
321,1.14,73.19,21.36,4.31
323,1.24,66.17,27.08,5.51
325,0.75,89.31,8.53,1.41
327,0.84,86.8,10.91,1.45
329,0.0,84.02,13.76,2.22
331,0.0,79.78,17.41,2.8
333,0.0,74.55,22.31,3.14
335,1.8,65.83,27.62,4.75
337,0.76,85.11,12.38,1.75
339,0.0,82.02,15.42,2.56
341,0.0,76.38,20.41,3.21
342,1.61,71.25,22.71,4.43