File: Burgel/15453660/Composition_Dataset/ML_12_Pt-rich_Cu-Pd-Pt-Ru_EDX.csv
Index,Cu,Pd,Pt,Ru
1,11.32,18.61,56.17,13.9
3,9.33,16.4,59.63,14.64
5,8.91,11.47,62.75,16.86
7,6.6,10.63,63.85,18.92
9,4.81,8.26,67.52,19.41
11,3.68,7.43,68.51,20.38
13,10.51,19.12,58.56,11.81
15,8.56,15.72,61.48,14.24
17,7.83,13.97,63.12,15.08
19,6.42,11.33,66.02,16.23
21,5.46,9.17,67.7,17.67
23,4.24,7.26,69.27,19.23
25,10.96,23.9,55.68,9.46
27,9.26,20.68,59.3,10.76
29,7.68,17.48,62.12,12.72
31,7.01,12.46,66.97,13.56
33,5.53,11.07,68.51,14.89
35,4.6,8.58,71.12,15.69
37,3.65,7.87,70.83,17.65
39,3.46,4.92,72.22,19.4
41,9.96,24.27,57.51,8.27
43,8.24,20.79,61.2,9.77
45,7.52,17.9,63.23,11.35
47,6.62,12.96,65.84,14.58
49,4.66,12.27,68.53,14.55
51,3.65,8.58,72.81,14.96
53,3.11,7.58,73.62,15.69
55,3.57,6.0,73.45,16.97
57,9.55,30.91,52.17,7.37
59,8.37,24.7,59.27,7.66
61,6.14,21.61,62.34,9.91
63,6.34,17.98,64.41,11.27
65,5.64,14.19,68.12,12.06
67,5.54,10.24,70.74,13.48
69,3.19,9.27,71.81,15.73
71,3.17,7.48,74.38,14.97
73,2.29,6.23,75.74,15.74
75,1.93,5.64,76.29,16.13
77,7.86,27.76,57.83,6.55
79,6.75,23.9,61.92,7.44
81,6.0,20.01,64.49,9.5
83,4.86,16.15,68.9,10.09
85,3.23,13.23,70.84,12.7
87,3.63,10.65,72.96,12.77
89,3.24,8.27,74.55,13.93
91,1.84,7.0,77.08,14.08
93,1.97,4.34,78.26,15.43
95,8.35,33.57,52.78,5.3
97,6.79,28.31,59.02,5.87
99,5.72,23.95,63.04,7.29
101,4.88,20.14,65.26,9.71
103,4.2,16.71,68.97,10.12
105,3.7,13.59,71.82,10.9
107,3.81,11.21,73.53,11.45
109,3.25,8.54,75.68,12.53
111,2.56,6.46,77.33,13.66
113,2.01,5.02,78.06,14.91
115,,,,
117,6.1,31.94,56.71,5.25
119,5.34,27.5,61.42,5.74
121,5.29,23.05,64.54,7.12
123,4.0,18.41,68.57,9.02
125,4.37,15.85,70.14,9.63
127,2.93,13.24,72.79,11.05
129,2.8,9.5,76.21,11.5
131,2.4,7.29,78.09,12.22
133,1.95,5.4,79.39,13.27
135,1.87,4.9,80.01,13.21
137,7.07,34.02,54.64,4.27
139,5.83,28.66,60.39,5.12
141,5.39,23.55,63.59,7.48
143,3.24,21.28,67.96,7.52
145,4.36,16.24,71.53,7.87
147,2.58,13.97,73.69,9.76
149,2.3,11.28,75.47,10.95
151,1.89,8.69,78.38,11.04
153,1.6,5.66,80.93,11.81
155,1.27,5.22,81.43,12.08
157,0.0,4.03,82.72,13.25
159,4.92,31.09,58.59,5.4
161,4.65,27.33,62.22,5.8
163,3.66,23.3,66.59,6.45
165,3.24,19.53,70.33,6.9
167,2.11,16.13,73.86,7.89
169,2.45,13.23,75.79,8.53
171,1.29,10.27,78.82,9.61
173,1.68,7.67,80.66,9.98
175,1.17,5.95,81.73,11.16
177,0.0,4.28,83.31,12.42
179,6.25,33.95,55.84,3.96
181,3.26,29.24,62.94,4.55
183,3.54,25.53,65.93,5.0
185,3.11,20.43,70.45,6.01
187,2.46,17.09,72.88,7.57
189,1.97,14.27,75.78,7.98
191,2.47,11.77,77.23,8.53
193,1.34,8.28,80.86,9.52
195,0.0,6.23,83.98,9.79
197,0.0,4.58,84.15,11.27
199,0.0,4.23,83.78,11.99
201,3.92,31.51,60.97,3.6
203,3.71,27.52,65.14,3.62
205,2.83,23.58,68.59,4.99
207,2.87,19.25,71.33,6.54
209,1.56,16.16,74.44,7.84
211,2.14,12.63,78.01,7.22
213,1.45,9.66,80.99,7.89
215,0.0,7.52,83.43,9.05
217,1.47,6.14,82.98,9.41
219,0.0,4.36,85.48,10.16
221,3.55,35.6,58.43,2.42
223,2.58,29.76,63.18,4.48
225,2.34,24.55,68.36,4.75
227,2.06,21.14,71.57,5.23
229,1.88,17.8,74.97,5.35
231,1.6,13.38,78.33,6.69
233,1.25,10.65,80.23,7.88
235,1.34,8.84,82.13,7.68
237,0.0,6.81,84.54,8.65
239,0.0,4.56,86.8,8.64
241,1.74,3.18,86.99,8.1
243,2.78,29.59,64.07,3.57
245,2.81,24.57,68.22,4.4
247,2.17,20.82,71.77,5.24
249,2.62,16.92,75.41,5.06
251,1.22,14.03,78.78,5.97
253,0.0,10.65,82.95,6.4
255,0.0,8.53,83.83,7.64
257,0.0,6.18,86.21,7.61
259,1.54,4.81,85.81,7.85
261,2.8,31.91,62.14,3.14
263,2.05,27.26,67.36,3.33
265,1.6,22.36,71.82,4.21
267,2.32,18.73,75.1,3.85
269,1.63,15.59,77.09,5.7
271,1.44,12.58,80.74,5.25
273,0.0,9.58,84.45,5.96
275,1.12,6.76,85.71,6.41
277,0.0,5.72,86.89,7.4
279,0.0,3.68,89.69,6.64
281,1.4,27.05,69.01,2.54
283,1.96,22.8,72.17,3.08
285,0.0,18.95,77.08,3.97
287,1.09,14.61,79.63,4.67
289,0.0,12.31,82.42,5.28
291,0.0,9.21,85.35,5.45
293,0.0,6.74,87.44,5.82
295,0.0,5.09,89.34,5.57
297,1.77,27.01,68.78,2.44
299,1.32,22.48,73.5,2.7
301,0.0,19.18,77.48,3.34
303,1.9,15.25,78.79,4.06
305,1.08,11.54,83.32,4.07
307,0.0,9.62,84.99,5.38
309,0.0,7.31,86.99,5.7
311,0.0,5.15,89.77,5.07
313,1.44,22.5,73.43,2.63
315,1.57,17.97,77.44,3.02
317,0.0,15.07,81.42,3.51
319,1.13,11.39,83.62,3.87
321,0.0,8.95,87.68,3.37
323,0.0,6.69,88.85,4.46
325,0.0,22.45,74.67,2.87
327,1.2,17.96,78.34,2.5
329,0.0,16.02,81.0,2.98
331,0.0,11.45,84.66,3.89
333,0.0,8.71,87.93,3.36
335,0.0,6.14,89.53,4.33
337,0.0,16.17,81.57,2.26
339,0.0,12.6,84.43,2.97
341,0.0,9.83,87.03,3.14
342,1.07,8.13,87.65,3.16