File: Burgel/15453660/Composition_Dataset/ML_1_near-equiatomic_Pd-Pt-Ru_EDX.csv
Index,N,Pd,Pt,Ru
1,4.51,35.34,18.81,45.84
3,0.0,28.5,19.3,52.2
5,6.89,22.85,20.51,56.63
7,6.09,18.32,20.24,61.43
9,9.91,14.59,21.32,64.09
11,7.39,12.43,20.81,66.75
13,6.25,36.04,19.45,44.52
15,6.19,29.82,20.58,49.6
17,6.61,24.84,20.85,54.31
19,7.0,19.86,21.7,58.45
21,6.32,16.38,22.27,61.35
23,7.55,12.39,22.53,65.09
25,6.84,44.74,18.52,36.74
27,5.97,38.76,19.59,41.66
29,6.72,30.96,21.4,47.65
31,5.36,26.56,22.86,50.58
33,5.83,20.77,23.11,56.12
35,8.66,17.03,24.39,58.58
37,0.0,13.65,25.07,61.28
39,9.64,10.39,24.84,64.78
41,5.19,47.75,18.8,33.45
43,0.0,40.21,21.26,38.53
45,5.63,34.0,22.6,43.41
47,0.0,28.98,23.15,47.86
49,0.0,22.58,24.99,52.43
51,8.02,18.2,25.55,56.25
53,0.0,13.03,26.46,60.5
55,8.48,11.25,27.07,61.68
57,5.91,55.85,18.58,25.57
59,8.21,49.27,20.02,30.71
61,9.81,43.0,20.97,36.03
63,6.87,35.97,23.45,40.58
65,6.55,30.14,24.69,45.18
67,6.43,24.5,25.9,49.6
69,5.8,20.2,27.49,52.3
71,7.24,14.74,28.49,56.77
73,9.18,12.55,28.71,58.75
75,7.05,9.13,28.74,62.13
77,0.0,54.61,19.61,25.78
79,0.0,49.6,21.0,29.4
81,5.31,40.82,22.92,36.27
83,8.79,34.64,24.94,40.42
85,5.37,28.96,26.0,45.05
87,7.69,23.22,27.89,48.89
89,7.14,18.11,29.31,52.58
91,5.62,13.47,30.51,56.02
93,0.0,11.27,30.77,57.96
95,0.0,63.87,17.67,18.46
97,9.01,57.41,19.43,23.16
99,5.8,49.44,22.51,28.05
101,5.91,42.89,23.5,33.61
103,5.75,37.08,24.89,38.04
105,6.44,29.49,27.74,42.77
107,9.32,23.7,29.49,46.81
109,5.37,19.56,30.6,49.84
111,8.61,15.38,32.01,52.6
113,7.66,11.93,31.76,56.31
115,7.43,9.99,32.16,57.85
117,7.22,61.12,18.99,19.88
119,5.37,54.08,21.56,24.36
121,0.0,48.4,23.23,28.37
123,7.25,40.63,26.06,33.32
125,8.26,34.65,27.54,37.81
127,0.0,28.57,29.13,42.3
129,8.33,23.14,31.05,45.82
131,5.85,17.31,33.36,49.32
133,7.33,14.37,33.61,52.01
135,7.17,10.87,34.04,55.09
137,5.19,65.27,18.09,16.64
139,0.0,58.37,20.64,20.99
141,7.66,52.65,22.92,24.43
143,0.0,46.15,25.42,28.43
145,0.0,39.46,27.74,32.79
147,6.66,32.93,29.71,37.35
149,6.92,27.01,31.6,41.39
151,6.98,21.88,33.07,45.05
153,8.35,15.91,35.56,48.54
155,6.05,13.22,35.86,50.92
157,8.33,9.83,37.27,52.9
159,6.24,64.27,19.71,16.02
161,0.0,57.63,22.23,20.15
163,9.85,50.79,25.37,23.84
165,7.09,44.55,27.23,28.21
167,5.74,38.22,29.64,32.14
169,6.1,32.03,31.31,36.66
171,6.27,25.48,34.29,40.23
173,0.0,19.77,36.4,43.83
175,9.35,14.57,37.95,47.48
177,6.83,11.2,39.11,49.69
179,6.47,67.86,18.35,13.78
181,0.0,62.3,21.14,16.56
183,0.0,54.96,24.86,20.18
185,7.73,49.65,26.55,23.8
187,7.32,41.54,29.39,29.08
189,8.95,36.01,32.25,31.73
191,6.14,30.04,33.84,36.13
193,7.31,24.75,36.51,38.75
195,8.98,18.54,38.6,42.85
197,6.67,14.04,40.23,45.73
199,6.47,10.51,41.74,47.75
201,6.57,66.14,20.65,13.2
203,5.66,59.55,23.83,16.62
205,0.0,52.84,26.72,20.44
207,10.53,46.47,29.52,24.01
209,6.51,40.49,31.62,27.89
211,5.92,34.63,34.15,31.22
213,6.55,27.37,37.6,35.02
215,6.04,21.39,39.47,39.14
217,0.0,17.08,41.17,41.75
219,7.12,13.03,42.84,44.12
221,7.27,70.03,19.07,10.9
223,5.97,63.55,22.68,13.77
225,0.0,57.52,25.45,17.03
227,6.18,51.9,28.55,19.55
229,0.0,45.87,31.42,22.72
231,7.29,38.48,33.95,27.57
233,0.0,32.51,36.73,30.76
235,9.1,25.38,39.42,35.21
237,5.94,20.38,42.81,36.81
239,7.56,15.12,44.94,39.95
241,8.21,11.64,46.13,42.23
243,0.0,64.56,22.82,12.62
245,9.11,58.74,26.38,14.88
247,0.0,52.19,29.73,18.08
249,0.0,46.52,32.11,21.37
251,0.0,40.06,35.3,24.64
253,6.18,33.36,38.44,28.2
255,6.87,25.93,41.8,32.27
257,0.0,20.31,45.49,34.21
259,8.26,15.54,47.15,37.31
261,5.82,67.78,21.11,11.11
263,7.27,62.37,24.74,12.89
265,7.31,56.54,28.56,14.9
267,8.32,50.63,31.44,17.94
269,9.68,44.16,34.76,21.08
271,8.84,37.39,38.12,24.49
273,6.5,31.36,42.24,26.4
275,8.23,23.78,45.77,30.45
277,8.77,18.65,48.59,32.76
279,5.64,14.55,50.44,35.0
281,8.66,62.76,25.51,11.73
283,8.46,58.33,28.92,12.75
285,6.9,51.5,32.5,16.0
287,0.0,45.06,36.05,18.9
289,6.07,38.6,40.26,21.14
291,8.64,30.97,43.83,25.2
293,6.82,25.04,47.71,27.24
295,6.96,19.44,50.73,29.84
297,0.0,63.74,25.58,10.68
299,0.0,58.56,29.51,11.94
301,8.51,52.24,32.73,15.03
303,0.0,45.41,37.03,17.56
305,7.99,39.65,41.06,19.29
307,8.63,32.52,46.17,21.3
309,7.45,24.97,49.93,25.1
311,0.0,19.62,53.49,26.88
313,0.0,59.22,30.0,10.79
315,7.62,53.02,34.18,12.8
317,5.89,46.62,38.5,14.88
319,9.69,40.57,41.92,17.51
321,0.0,32.97,47.7,19.33
323,6.15,25.82,51.6,22.57
325,0.0,59.25,30.38,10.38
327,9.81,52.5,34.83,12.67
329,0.0,47.12,39.14,13.74
331,0.0,40.31,43.95,15.74
333,0.0,33.22,49.25,17.53
335,6.51,26.34,53.75,19.91
337,6.97,50.54,38.43,11.03
339,8.43,42.95,43.42,13.63
341,8.17,35.37,49.51,15.12
342,0.0,33.15,50.51,16.33