File: Burgel/15453660/Composition_Dataset/ML_13_Cu-rich_Cu-Pd-Pt-Ru_EDX.csv
Index,Cu,Pd,Pt,Ru
1,86.01,5.62,2.1,6.27
3,83.8,5.39,2.62,8.19
5,81.05,5.22,3.35,10.38
7,78.24,5.08,3.8,12.88
9,74.77,4.64,4.47,16.11
11,69.64,4.57,5.66,20.13
13,84.56,6.56,2.32,6.56
15,82.79,6.22,2.85,8.13
17,80.01,6.14,3.53,10.32
19,77.21,5.55,4.4,12.84
21,73.62,4.96,5.29,16.14
23,68.35,4.98,6.51,20.16
25,85.1,7.95,2.16,4.79
27,83.28,7.49,2.59,6.65
29,81.27,7.33,3.31,8.09
31,78.46,6.78,4.13,10.63
33,75.91,6.37,5.01,12.71
35,71.66,5.72,6.2,16.42
37,66.67,5.63,7.57,20.13
39,60.72,5.47,8.9,24.91
41,84.22,8.67,2.31,4.8
43,81.6,8.57,3.13,6.7
45,79.38,8.24,3.71,8.67
47,77.09,7.66,4.64,10.61
49,73.85,7.26,5.61,13.28
51,69.72,6.72,7.14,16.42
53,65.35,5.9,8.34,20.4
55,58.83,6.04,9.95,25.18
57,83.69,10.4,2.27,3.63
59,82.1,10.11,2.81,4.97
61,79.83,9.78,3.59,6.8
63,77.9,9.15,4.51,8.45
65,75.09,8.65,5.46,10.8
67,71.74,8.1,6.83,13.34
69,68.1,7.62,8.0,16.28
71,62.59,6.76,9.55,21.09
73,56.54,7.06,11.21,25.18
75,50.62,5.69,13.26,30.43
77,80.7,11.94,2.99,4.38
79,79.0,11.42,3.76,5.81
81,76.77,10.87,4.47,7.89
83,74.81,9.69,5.4,10.1
85,71.6,9.27,6.62,12.51
87,68.05,9.13,8.12,14.7
89,63.6,7.8,9.76,18.84
91,57.48,7.87,11.75,22.91
93,51.56,7.04,13.5,27.9
95,79.97,14.12,2.65,3.26
97,78.76,13.35,3.23,4.66
99,77.24,12.8,4.24,5.73
101,75.32,11.8,5.12,7.76
103,73.0,11.14,6.38,9.48
105,69.65,10.76,7.6,12.0
107,65.79,10.06,9.27,14.88
109,61.32,9.01,11.12,18.55
111,55.39,8.56,13.24,22.81
113,49.35,7.65,15.43,27.58
115,,,,
117,77.9,14.86,3.23,4.01
119,75.92,14.51,4.37,5.2
121,73.93,14.07,5.21,6.79
123,72.03,13.11,6.33,8.53
125,68.97,12.27,7.81,10.95
127,65.36,11.2,9.48,13.96
129,61.18,10.68,11.1,17.03
131,56.13,9.45,13.34,21.08
133,49.46,9.04,15.77,25.72
135,44.13,7.5,18.47,29.9
137,75.37,17.66,3.39,3.58
139,74.96,16.31,4.2,4.54
141,72.09,16.46,5.53,5.91
143,70.73,14.92,6.71,7.63
145,67.62,14.6,7.93,9.86
147,64.84,13.45,9.73,11.98
149,60.9,12.4,11.38,15.32
151,55.68,11.29,13.91,19.12
153,49.98,10.31,16.5,23.22
155,44.48,9.3,18.8,27.42
157,39.5,7.67,21.18,31.66
159,72.22,19.47,4.55,3.76
161,70.9,18.42,5.53,5.15
163,68.98,17.41,6.8,6.8
165,66.85,16.41,8.08,8.66
167,63.26,15.4,9.92,11.43
169,60.05,14.05,11.94,13.96
171,55.69,12.82,14.15,17.34
173,51.01,11.38,16.87,20.74
175,45.25,10.34,19.57,24.85
177,39.86,8.94,22.36,28.84
179,70.23,21.75,4.48,3.54
181,68.66,20.97,5.56,4.81
183,67.12,19.91,7.0,5.97
185,64.93,18.93,8.38,7.76
187,62.54,17.51,10.15,9.79
189,58.98,16.59,12.0,12.42
191,55.83,15.67,14.2,14.3
193,50.17,14.2,16.62,19.01
195,45.44,12.1,20.23,22.22
197,39.33,10.8,22.84,27.03
199,35.28,8.77,25.56,30.39
201,66.16,24.19,5.72,3.93
203,65.04,22.2,7.18,5.58
205,63.38,21.35,8.35,6.91
207,61.29,19.92,10.29,8.5
209,58.2,18.93,12.1,10.77
211,54.35,17.52,14.88,13.25
213,49.18,16.28,17.65,16.89
215,44.07,14.45,20.64,20.85
217,38.85,12.05,24.14,24.96
219,35.42,10.09,26.61,27.89
221,63.35,27.35,5.63,3.67
223,62.37,25.81,6.81,5.0
225,61.7,23.97,8.57,5.75
227,57.96,23.29,10.56,8.19
229,55.94,22.03,12.32,9.71
231,52.0,20.81,15.06,12.13
233,49.12,18.11,17.7,15.07
235,44.12,15.77,21.49,18.61
237,39.22,13.94,24.17,22.67
239,34.91,11.21,27.55,26.33
241,,,,
243,58.82,28.6,7.97,4.61
245,58.11,26.33,9.8,5.76
247,55.08,25.65,11.93,7.34
249,52.22,24.32,13.99,9.47
251,49.43,22.14,16.49,11.94
253,44.9,20.77,19.68,14.66
255,40.77,17.91,23.27,18.05
257,36.56,15.11,26.83,21.51
259,31.89,12.77,30.05,25.29
261,55.44,32.5,7.84,4.22
263,53.88,30.87,9.94,5.31
265,52.93,29.27,12.12,5.68
267,50.68,27.21,14.46,7.65
269,47.16,25.37,17.22,10.26
271,43.53,22.76,20.27,13.45
273,40.01,20.21,23.88,15.9
275,36.51,17.67,27.78,18.04
277,30.72,15.14,31.58,22.56
279,27.63,12.7,34.2,25.47
281,49.74,33.76,11.13,5.37
283,48.08,32.41,13.74,5.77
285,46.32,30.18,16.01,7.49
287,42.72,28.23,19.0,10.06
289,40.16,24.76,22.4,12.69
291,36.93,21.14,26.44,15.49
293,33.11,18.73,29.65,18.51
295,28.32,16.86,34.24,20.57
297,45.99,36.95,11.72,5.35
299,44.56,34.18,15.09,6.16
301,43.1,31.52,17.85,7.53
303,39.45,29.61,20.78,10.16
305,36.92,26.7,24.25,12.13
307,34.26,23.06,28.85,13.83
309,31.51,18.89,32.74,16.86
311,28.22,15.62,37.09,19.07
313,41.53,36.4,16.05,6.02
315,39.16,34.62,19.32,6.9
317,36.7,31.28,22.77,9.25
319,34.5,27.88,26.91,10.71
321,31.87,23.67,30.76,13.71
323,28.04,20.53,35.61,15.81
325,37.06,40.48,16.67,5.8
327,34.9,37.52,20.77,6.8
329,33.33,33.06,24.54,9.06
331,30.44,29.98,29.51,10.07
333,29.39,24.35,33.27,12.98
335,26.14,19.94,39.36,14.56
337,30.53,37.44,24.54,7.49
339,29.94,33.05,27.99,9.02
341,27.93,27.86,33.11,11.1
342,26.55,25.47,37.05,10.94