File: Burgel/15453660/Composition_Dataset/ML_10_Ir-rich_Ir-Pd-Pt-Ru_EDX.csv
Index,Ir,Pd,Pt,Ru
1,87.43,1.48,3.83,7.27
3,85.66,1.31,4.12,8.91
5,82.13,1.54,5.48,10.86
7,78.72,1.62,7.07,12.59
9,74.29,1.11,9.03,15.56
11,68.03,1.21,12.17,18.6
13,86.32,2.2,4.21,7.26
15,83.87,2.11,4.97,9.06
17,81.49,1.59,6.42,10.5
19,78.04,1.2,7.84,12.93
21,72.55,1.99,9.5,15.95
23,67.6,1.64,12.18,18.58
25,88.09,1.81,4.07,6.04
27,86.19,1.99,4.69,7.14
29,83.5,1.9,6.06,8.53
31,79.68,1.64,7.79,10.89
33,76.6,1.75,8.68,12.97
35,71.55,2.21,10.98,15.26
37,66.63,1.67,13.3,18.41
39,60.19,1.16,17.12,21.53
41,87.01,2.6,4.17,6.22
43,85.29,2.18,5.32,7.2
45,82.65,2.24,6.43,8.67
47,78.42,2.24,8.64,10.71
49,75.01,2.18,9.81,12.99
51,70.96,2.47,11.58,14.99
53,65.74,2.0,14.55,17.71
55,58.17,1.82,18.03,21.98
57,88.86,2.74,4.09,4.3
59,85.93,2.58,5.14,6.35
61,84.05,2.32,6.21,7.42
63,80.56,2.63,7.61,9.21
65,77.73,2.33,8.99,10.95
67,73.63,2.62,10.91,12.84
69,70.67,2.08,12.86,14.39
71,64.4,1.99,15.9,17.71
73,56.29,2.0,19.84,21.87
75,50.05,1.78,24.23,23.94
77,87.19,2.65,5.05,5.11
79,84.2,2.86,6.26,6.69
81,81.61,2.59,8.01,7.78
83,78.36,2.34,9.84,9.46
85,74.65,2.65,11.06,11.64
87,70.03,3.09,13.6,13.28
89,65.6,2.21,16.2,15.98
91,59.5,1.85,19.47,19.17
93,52.12,1.19,24.03,22.66
95,88.61,3.33,4.19,3.86
97,86.02,3.14,5.55,5.3
99,83.04,3.33,7.28,6.35
101,80.7,2.98,8.68,7.65
103,77.96,2.8,10.47,8.77
105,73.08,2.9,12.35,11.67
107,69.17,2.29,15.04,13.49
109,63.93,2.11,17.7,16.26
111,57.92,1.93,21.3,18.85
113,49.85,2.4,25.75,22.0
115,42.73,1.64,30.46,25.18
117,86.07,3.46,5.87,4.6
119,83.41,3.75,7.07,5.77
121,80.29,3.44,8.59,7.68
123,77.86,3.14,10.59,8.41
125,73.72,3.07,12.5,10.7
127,70.36,2.41,15.32,11.91
129,65.27,3.19,17.64,13.9
131,58.98,2.61,21.37,17.04
133,51.93,2.56,25.37,20.15
135,44.64,1.49,31.12,22.75
137,86.63,4.11,5.19,4.08
139,83.81,4.2,6.54,5.45
141,81.03,3.98,8.65,6.34
143,78.34,3.48,10.59,7.59
145,74.41,3.88,12.68,9.03
147,70.68,3.13,15.34,10.85
149,66.37,2.92,18.0,12.71
151,59.84,3.61,21.54,15.01
153,53.9,2.66,25.43,18.0
155,47.19,2.87,29.51,20.44
157,39.8,1.99,35.33,22.89
159,83.93,4.82,7.22,4.03
161,81.32,4.68,8.51,5.48
163,77.95,4.53,10.95,6.57
165,74.65,4.15,12.95,8.26
167,70.81,3.73,15.42,10.04
169,67.4,4.27,17.89,10.44
171,61.4,3.35,21.6,13.65
173,55.75,3.11,25.48,15.66
175,48.42,2.72,30.32,18.54
177,41.25,3.25,35.06,20.44
179,83.92,4.78,7.03,4.26
181,81.06,4.87,8.9,5.17
183,78.53,4.92,10.98,5.57
185,74.2,5.34,13.18,7.28
187,71.72,4.11,15.35,8.82
189,66.45,4.41,18.73,10.41
191,62.07,3.74,21.57,12.63
193,56.67,3.69,25.38,14.26
195,49.25,3.46,30.16,17.14
197,41.88,2.7,35.83,19.59
199,35.9,2.19,40.28,21.63
201,80.27,6.03,9.59,4.11
203,79.52,4.75,11.24,4.48
205,75.34,4.96,13.5,6.2
207,71.27,5.31,15.72,7.7
209,67.02,5.19,18.33,9.47
211,63.13,4.61,22.09,10.17
213,57.25,3.97,25.67,13.12
215,50.09,3.97,30.47,15.47
217,44.07,2.83,35.37,17.73
219,38.15,2.71,39.91,19.23
221,80.17,6.58,9.1,4.15
223,78.0,5.95,11.24,4.8
225,75.32,5.96,13.19,5.54
227,71.22,5.36,16.38,7.04
229,67.65,4.69,19.21,8.44
231,62.12,5.85,22.28,9.75
233,57.05,5.2,26.18,11.57
235,51.76,4.54,30.53,13.17
237,45.82,3.03,35.22,15.93
239,39.32,3.86,40.85,15.97
241,33.76,2.16,45.7,18.38
243,76.67,6.32,12.53,4.48
245,72.33,6.36,15.32,5.99
247,68.93,6.3,18.42,6.35
249,64.52,6.19,21.34,7.96
251,59.66,5.97,25.07,9.3
253,53.39,5.62,29.78,11.21
255,48.77,4.84,33.63,12.76
257,42.84,3.61,38.78,14.77
259,36.88,3.5,43.68,15.94
261,75.31,7.44,13.09,4.15
263,70.87,7.3,15.93,5.9
265,68.03,7.28,18.43,6.25
267,64.5,6.43,21.96,7.11
269,59.63,6.48,25.51,8.39
271,53.5,6.54,29.56,10.41
273,47.82,6.13,33.91,12.14
275,42.56,5.55,38.69,13.2
277,38.11,3.68,44.76,13.45
279,32.58,3.33,48.53,15.56
281,68.35,8.43,17.61,5.61
283,64.67,8.08,21.21,6.04
285,59.93,8.4,24.31,7.36
287,57.16,7.26,27.96,7.62
289,50.76,7.24,32.14,9.85
291,46.21,5.99,36.63,11.17
293,39.31,5.37,42.74,12.57
295,34.76,4.53,47.09,13.62
297,64.72,10.25,19.86,5.18
299,60.02,9.87,23.67,6.44
301,56.76,8.8,27.42,7.02
303,52.75,8.1,31.12,8.03
305,47.3,7.67,35.07,9.97
307,43.56,6.46,40.01,9.97
309,38.24,5.13,45.09,11.54
311,33.21,4.24,50.58,11.96
313,57.4,10.8,26.32,5.48
315,54.41,9.71,30.11,5.77
317,49.39,8.84,34.01,7.76
319,45.11,7.61,38.75,8.53
321,40.61,6.82,43.51,9.06
323,35.36,5.98,48.7,9.96
325,55.17,11.37,28.1,5.35
327,49.27,10.33,33.48,6.92
329,46.19,9.5,37.06,7.24
331,41.56,8.88,42.4,7.16
333,36.58,7.96,46.13,9.33
335,31.99,6.14,52.05,9.83
337,44.92,11.18,37.88,6.02
339,41.1,9.4,42.57,6.93
341,36.87,8.75,47.1,7.28
342,33.8,7.74,50.17,8.3