File: Burgel/15453660/Composition_Dataset/ML_2_Pt-rich_Ni-Pd-Pt-Ru_EDX.csv
Index,Ni,Pd,Pt,Ru
1,33.76,6.47,48.52,11.25
3,29.75,5.31,52.22,12.72
5,26.03,4.24,55.24,14.49
7,20.5,3.91,59.24,16.35
9,17.94,3.4,61.2,17.47
11,15.17,2.3,63.45,19.08
13,32.18,5.69,51.61,10.52
15,27.9,4.73,55.44,11.94
17,24.21,5.04,57.61,13.14
19,19.62,3.48,61.6,15.3
21,16.65,3.24,63.46,16.65
23,14.89,2.87,65.21,17.02
25,33.42,7.86,50.33,8.39
27,28.79,6.81,55.08,9.32
29,24.63,5.77,58.07,11.53
31,21.22,4.88,60.96,12.95
33,18.03,3.69,65.04,13.25
35,14.22,3.11,67.61,15.07
37,12.85,2.51,69.38,15.26
39,10.91,3.06,69.47,16.56
41,31.38,7.85,52.8,7.97
43,26.75,6.77,57.67,8.8
45,22.46,6.5,60.59,10.44
47,19.72,5.03,64.5,10.75
49,16.95,4.12,66.95,11.97
51,13.91,3.36,69.56,13.17
53,11.16,3.26,71.16,14.42
55,9.63,2.31,72.74,15.32
57,33.15,9.61,50.7,6.55
59,27.93,8.78,56.1,7.2
61,24.2,6.77,60.16,8.88
63,21.14,5.6,64.09,9.17
65,17.36,5.37,66.87,10.4
67,14.97,4.59,69.39,11.05
69,13.19,3.3,71.39,12.12
71,10.36,2.83,73.87,12.93
73,8.99,2.23,75.24,13.54
75,8.22,1.29,75.81,14.68
77,27.83,9.07,56.65,6.46
79,23.62,8.44,60.74,7.2
81,20.37,6.44,64.27,8.93
83,17.03,5.16,68.32,9.48
85,15.59,4.26,70.44,9.71
87,12.9,2.89,73.6,10.61
89,10.54,2.68,75.39,11.4
91,9.45,2.45,76.2,11.9
93,8.15,1.73,76.69,13.43
95,29.23,11.61,53.57,5.59
97,25.7,9.24,58.17,6.88
99,21.99,7.93,62.9,7.19
101,18.48,6.56,67.38,7.58
103,16.49,5.85,69.55,8.12
105,14.71,4.37,72.1,8.82
107,11.6,3.78,74.66,9.97
109,10.71,2.85,76.45,9.99
111,8.55,2.23,78.43,10.79
113,6.74,1.71,80.2,11.35
115,6.71,1.81,79.97,11.52
117,25.18,10.9,58.6,5.33
119,21.56,9.28,63.61,5.55
121,18.13,7.04,67.98,6.85
123,15.46,6.15,70.8,7.59
125,13.53,5.38,73.02,8.07
127,11.49,4.56,75.84,8.11
129,10.03,3.7,76.97,9.29
131,7.84,2.8,79.74,9.63
133,7.51,2.08,80.59,9.82
135,6.61,1.67,81.86,9.87
137,24.81,11.24,59.04,4.91
139,20.83,9.71,63.9,5.56
141,18.19,8.2,67.67,5.94
143,15.63,6.11,71.97,6.29
145,13.16,6.17,73.68,6.99
147,11.27,4.65,76.49,7.59
149,9.76,4.22,77.91,8.12
151,8.44,2.41,81.11,8.04
153,7.18,2.58,81.58,8.67
155,6.94,2.31,81.88,8.86
157,6.27,1.71,83.08,8.95
159,21.95,10.35,63.09,4.61
161,17.53,8.87,68.3,5.3
163,15.25,7.08,72.05,5.63
165,13.29,6.06,73.93,6.73
167,11.74,5.08,76.35,6.83
169,9.69,4.38,78.62,7.31
171,7.88,3.51,81.19,7.42
173,7.47,2.85,82.45,7.24
175,6.4,2.06,83.63,7.92
177,5.86,1.63,84.28,8.22
179,20.99,12.02,62.85,4.14
181,18.57,10.44,66.7,4.29
183,15.63,7.96,71.39,5.01
185,12.48,7.42,74.43,5.67
187,11.78,5.59,76.69,5.93
189,9.16,5.0,79.41,6.43
191,7.56,4.09,81.65,6.71
193,6.39,3.23,83.84,6.54
195,5.93,2.93,83.99,7.16
197,5.85,1.58,84.99,7.58
199,6.14,1.13,85.39,7.34
201,17.07,11.25,67.51,4.17
203,14.9,9.5,71.3,4.3
205,13.47,7.33,74.52,4.67
207,10.84,6.4,77.73,5.03
209,9.2,5.08,80.23,5.49
211,7.85,4.4,82.18,5.57
213,7.12,3.34,83.77,5.78
215,6.74,3.0,84.25,6.01
217,5.1,2.07,86.12,6.72
219,4.71,1.57,86.91,6.81
221,16.06,13.09,66.13,4.72
223,13.97,10.34,71.51,4.18
225,12.69,8.46,74.62,4.23
227,11.55,6.27,76.97,5.21
229,8.97,5.98,80.15,4.9
231,8.81,4.94,81.84,4.41
233,7.2,4.33,83.55,4.92
235,6.04,2.99,85.57,5.4
237,5.71,2.7,85.65,5.94
239,4.56,1.97,87.36,6.11
241,5.01,1.64,87.44,5.9
243,13.23,10.36,72.0,4.41
245,11.57,8.8,75.64,3.99
247,9.73,6.95,79.06,4.26
249,8.77,5.65,81.58,4.0
251,7.71,4.46,83.22,4.61
253,6.72,3.65,85.39,4.24
255,5.51,3.84,85.35,5.3
257,4.82,1.9,88.08,5.19
259,5.75,1.62,87.46,5.16
261,12.66,12.19,71.33,3.82
263,11.28,8.9,75.88,3.93
265,9.66,8.14,78.98,3.22
267,8.6,6.6,81.2,3.59
269,7.22,5.08,83.57,4.13
271,6.53,4.5,84.4,4.57
273,5.54,3.71,86.31,4.44
275,5.79,2.23,88.12,3.86
277,5.25,2.29,87.95,4.51
279,4.78,1.79,89.16,4.26
281,10.85,10.85,74.97,3.32
283,9.17,7.91,80.13,2.79
285,8.26,6.66,81.8,3.29
287,6.62,5.62,84.3,3.46
289,5.61,4.07,86.56,3.76
291,5.96,3.35,86.82,3.87
293,4.6,3.07,88.35,3.97
295,5.26,2.38,88.34,4.03
297,9.4,10.58,76.89,3.13
299,8.15,8.06,81.14,2.65
301,7.14,6.62,83.58,2.67
303,6.56,5.22,84.9,3.32
305,6.17,4.63,85.97,3.23
307,5.35,2.83,88.46,3.36
309,4.78,2.92,88.59,3.71
311,4.55,2.34,89.49,3.62
313,7.31,8.85,81.42,2.41
315,6.48,7.1,83.21,3.2
317,6.05,4.89,85.88,3.18
319,4.95,4.56,87.25,3.25
321,5.32,3.77,88.17,2.73
323,4.95,2.72,89.53,2.8
325,7.23,9.24,80.51,3.02
327,6.89,6.97,83.67,2.47
329,4.97,5.77,86.86,2.4
331,5.12,4.73,87.35,2.79
333,4.79,3.88,88.6,2.74
335,4.23,2.45,89.6,3.71
337,5.3,6.82,85.27,2.61
339,4.92,6.05,86.53,2.5
341,4.57,3.89,88.55,2.99
342,5.67,3.63,88.44,2.27