File: Burgel/15453660/Composition_Dataset/ML_3_Pd-rich_Ni-Pd-Pt-Ru_EDX.csv
Index,Ni,Pd,Pt,Ru
1,32.45,52.21,7.96,7.37
3,31.55,48.21,9.82,10.42
5,29.34,46.06,10.73,13.88
7,30.18,40.36,13.82,15.64
9,25.6,38.8,16.4,19.2
11,25.0,34.31,18.14,22.55
13,29.7,54.57,8.12,7.61
15,28.84,52.29,9.97,8.89
17,27.3,49.14,11.78,11.78
19,26.95,44.16,14.29,14.61
21,25.0,40.07,17.28,17.65
23,22.18,35.98,20.08,21.76
25,28.19,60.18,6.49,5.15
27,27.11,57.78,8.0,7.11
29,26.56,55.2,10.16,8.08
31,25.89,50.68,12.81,10.63
33,24.65,46.46,15.58,13.31
35,23.15,42.95,17.79,16.11
37,21.26,37.8,20.47,20.47
39,18.18,33.49,24.4,23.92
41,25.37,62.78,6.85,5.0
43,24.61,60.83,8.27,6.3
45,23.92,57.97,10.13,7.97
47,23.77,53.59,13.0,9.64
49,22.48,49.35,15.76,12.4
51,21.8,45.06,18.6,14.53
53,18.31,40.14,22.18,19.37
55,18.72,34.47,25.11,21.7
57,23.72,67.06,5.63,3.58
59,23.73,65.27,6.63,4.36
61,22.57,63.67,8.26,5.5
63,22.65,60.84,10.56,5.95
65,20.08,56.63,13.45,9.84
67,20.67,52.49,15.91,10.93
69,20.18,45.61,19.59,14.62
71,18.79,41.84,23.4,15.96
73,18.11,35.83,25.2,20.87
75,16.2,30.09,29.63,24.07
77,20.47,69.22,6.25,4.06
79,20.5,66.98,7.67,4.85
81,20.4,64.76,9.44,5.4
83,20.22,60.3,11.99,7.49
85,19.25,55.9,14.49,10.35
87,18.31,51.88,18.31,11.5
89,16.57,46.69,21.82,14.92
91,16.9,40.34,25.52,17.24
93,15.19,35.02,29.54,20.25
95,18.47,73.28,5.5,2.75
97,18.9,71.37,6.63,3.1
99,19.12,69.12,7.51,4.25
101,18.2,66.62,9.92,5.26
103,17.38,63.58,11.92,7.12
105,17.39,59.36,14.56,8.7
107,16.28,54.76,18.18,10.78
109,16.58,48.13,21.66,13.64
111,14.52,41.94,26.45,17.1
113,13.82,35.77,30.08,20.33
115,13.2,29.95,34.01,22.84
117,16.71,75.68,5.71,1.9
119,17.33,72.27,7.2,3.2
121,16.71,69.87,8.82,4.61
123,16.47,67.07,11.03,5.44
125,16.32,62.92,13.95,6.81
127,14.54,59.72,16.7,9.04
129,15.26,53.53,20.27,10.93
131,14.25,47.95,24.38,13.42
133,12.54,41.58,29.75,16.13
135,12.45,33.61,34.02,19.92
137,15.92,76.56,5.35,2.17
139,16.15,74.87,6.38,2.6
141,16.06,72.19,8.09,3.66
143,14.95,70.89,10.01,4.14
145,14.84,66.62,12.76,5.79
147,13.61,63.44,15.31,7.65
149,14.17,58.25,18.45,9.13
151,13.38,51.34,23.11,12.17
153,13.87,45.09,27.17,13.87
155,11.66,38.16,32.51,17.67
157,10.5,32.42,36.07,21.0
159,13.66,78.39,5.71,2.24
161,13.63,76.28,7.66,2.43
163,13.64,73.2,9.01,4.14
165,12.63,70.96,11.33,5.08
167,13.36,66.38,14.37,5.89
169,12.63,62.29,17.06,8.02
171,12.43,56.5,21.36,9.71
173,12.28,50.13,26.07,11.53
175,11.18,42.24,31.68,14.91
177,11.11,36.67,35.56,16.67
179,11.68,81.09,5.33,1.9
181,13.2,77.7,6.94,2.16
183,11.33,76.99,8.41,3.27
185,12.35,73.47,10.51,3.67
187,12.26,70.75,12.77,4.21
189,12.02,65.58,15.28,7.12
191,11.07,61.43,19.29,8.21
193,10.34,56.18,23.37,10.11
195,11.02,48.21,29.48,11.29
197,10.86,39.47,34.87,14.8
199,9.52,32.9,40.69,16.88
201,10.71,81.55,5.92,1.82
203,11.02,78.99,7.69,2.3
205,10.41,76.88,10.05,2.66
207,10.51,73.47,12.02,4.01
209,10.76,70.39,14.48,4.38
211,9.95,65.63,17.88,6.53
213,10.72,59.33,22.0,7.95
215,10.82,52.16,26.92,10.1
217,9.86,45.8,32.46,11.88
219,11.32,38.49,37.74,12.45
221,9.49,83.68,5.44,1.39
223,10.35,80.88,6.86,1.91
225,10.63,78.29,8.75,2.33
227,9.71,76.49,10.76,3.04
229,10.18,72.52,13.1,4.2
231,9.37,69.61,16.33,4.69
233,9.58,63.24,19.86,7.32
235,9.74,57.85,24.45,7.95
237,9.14,50.37,29.63,10.86
239,8.28,42.68,36.94,12.1
241,10.34,33.72,41.76,14.18
243,9.0,82.1,7.07,1.82
245,9.34,79.51,8.81,2.34
247,9.06,77.41,10.78,2.75
249,8.67,74.6,13.43,3.3
251,8.54,70.11,16.39,4.96
253,9.09,64.59,20.41,5.9
255,8.65,58.15,25.35,7.85
257,8.63,50.76,31.22,9.39
259,9.79,42.2,37.31,10.7
261,7.83,83.9,5.98,2.29
263,7.75,81.78,8.17,2.3
265,8.23,79.37,10.37,2.03
267,8.48,76.68,12.37,2.47
269,7.66,72.92,15.06,4.36
271,7.61,69.09,18.77,4.53
273,7.77,62.37,23.32,6.54
275,7.48,56.07,29.44,7.01
277,7.69,48.43,34.76,9.12
279,8.47,40.0,40.68,10.85
281,6.81,83.54,7.83,1.82
283,6.93,80.84,10.06,2.16
285,7.51,77.36,12.63,2.5
287,6.74,73.66,15.23,4.37
289,6.18,70.69,19.11,4.02
291,8.2,63.28,23.35,5.17
293,7.18,57.64,28.94,6.25
295,7.67,48.86,35.23,8.24
297,5.91,84.28,8.02,1.79
299,6.69,80.7,10.2,2.41
301,6.46,78.71,12.57,2.27
303,6.6,74.83,15.54,3.03
305,7.74,69.66,19.04,3.56
307,7.46,64.65,24.33,3.55
309,7.1,57.42,29.89,5.59
311,6.78,49.26,36.87,7.08
313,5.68,82.83,10.21,1.28
315,6.29,78.9,12.79,2.02
317,7.0,75.43,15.46,2.11
319,5.93,71.43,19.6,3.04
321,7.12,64.04,24.72,4.12
323,6.71,57.64,31.02,4.63
325,5.57,82.82,9.95,1.66
327,5.51,79.45,12.78,2.26
329,6.01,76.11,15.93,1.96
331,6.09,71.08,19.79,3.04
333,7.1,63.93,24.41,4.55
335,6.94,57.42,31.34,4.31
337,4.71,79.14,14.27,1.88
339,5.14,74.45,17.91,2.5
341,6.2,68.84,22.45,2.51
342,5.02,65.66,25.5,3.82