File: Burgel/15453660/Composition_Dataset/ML_4_Ni-rich_Ni-Pd-Pt-Ru_EDX.csv
Index,Ni,Pd,Pt,Ru
1,80.83,5.95,4.53,8.69
3,77.48,6.01,5.47,11.03
5,73.8,5.83,6.58,13.79
7,69.5,5.84,7.64,17.01
9,64.39,5.55,9.25,20.81
11,58.24,5.4,10.99,25.37
13,79.64,6.91,5.09,8.36
15,76.06,6.73,6.29,10.92
17,72.81,6.42,7.19,13.58
19,68.35,6.22,8.74,16.69
21,63.0,6.07,10.34,20.58
23,57.03,5.38,11.98,25.62
25,80.49,8.21,4.7,6.6
27,77.6,7.78,5.74,8.89
29,75.3,7.42,6.82,10.46
31,71.45,6.98,8.18,13.39
33,67.18,6.53,9.68,16.62
35,61.59,6.04,11.48,20.9
37,55.38,6.12,13.29,25.21
39,48.89,5.79,15.52,29.8
41,79.3,8.98,5.28,6.44
43,76.3,8.48,6.41,8.81
45,73.18,8.38,7.6,10.84
47,69.76,7.8,9.23,13.21
49,65.44,7.64,10.71,16.21
51,59.64,6.98,12.92,20.46
53,53.2,6.95,15.19,24.66
55,46.57,6.14,17.55,29.75
57,80.06,10.43,4.76,4.74
59,76.89,10.28,6.12,6.71
61,74.69,9.29,7.3,8.72
63,71.25,9.16,8.61,10.98
65,67.59,8.71,10.34,13.36
67,63.61,8.41,11.76,16.22
69,57.63,8.02,14.27,20.08
71,51.32,8.03,16.48,24.17
73,45.16,6.94,18.92,28.99
75,38.11,6.05,21.47,34.37
77,77.04,11.37,5.9,5.69
79,74.51,10.56,7.21,7.72
81,71.38,10.53,8.75,9.33
83,68.04,9.72,10.37,11.87
85,63.69,9.02,12.24,15.05
87,58.14,9.33,14.43,18.09
89,52.73,8.48,17.06,21.74
91,45.89,8.03,20.04,26.03
93,39.14,7.19,22.86,30.81
95,76.85,13.32,5.45,4.38
97,74.56,12.87,6.63,5.94
99,72.08,12.48,8.07,7.37
101,69.53,11.39,9.68,9.41
103,65.81,10.92,11.43,11.85
105,61.45,10.52,13.5,14.53
107,56.7,9.36,15.97,17.97
109,51.07,9.01,18.41,21.51
111,44.16,8.2,21.64,25.99
113,37.96,7.67,24.18,30.2
115,32.57,6.24,26.81,34.37
117,74.11,14.36,6.51,5.02
119,71.18,13.95,8.08,6.79
121,69.4,12.81,9.54,8.25
123,66.09,12.14,11.47,10.29
125,61.67,12.03,13.57,12.73
127,56.44,11.46,16.24,15.86
129,51.59,10.4,18.73,19.28
131,45.92,9.52,22.17,22.39
133,39.08,9.11,25.03,26.78
135,33.59,7.04,28.5,30.86
137,72.51,16.5,6.55,4.45
139,70.59,15.81,8.05,5.55
141,67.78,14.95,9.61,7.66
143,64.86,14.08,11.76,9.3
145,61.25,13.1,13.98,11.68
147,56.43,13.12,16.46,13.99
149,51.52,11.67,19.16,17.65
151,46.44,11.31,22.32,19.94
153,40.1,9.98,25.43,24.5
155,33.33,8.21,29.09,29.36
157,28.8,6.74,31.31,33.14
159,69.77,17.38,7.96,4.88
161,66.71,16.97,9.92,6.4
163,64.42,15.69,11.84,8.04
165,60.23,14.93,14.43,10.4
167,56.17,14.56,16.56,12.7
169,51.68,13.07,19.4,15.85
171,46.03,12.63,22.41,18.93
173,40.68,10.91,26.19,22.22
175,36.12,9.34,29.55,24.99
177,29.37,7.96,33.08,29.59
179,67.69,20.07,8.1,4.14
181,65.55,18.97,9.88,5.6
183,63.25,17.81,11.92,7.02
185,59.93,16.9,14.41,8.77
187,55.45,16.46,16.9,11.2
189,52.08,15.18,19.39,13.34
191,46.44,14.14,22.68,16.74
193,39.72,13.03,26.52,20.72
195,35.54,10.96,30.11,23.39
197,29.46,9.54,33.9,27.1
199,25.73,7.77,37.21,29.28
201,64.14,21.46,9.6,4.8
203,61.65,20.34,12.14,5.87
205,58.69,19.45,14.23,7.63
207,54.11,18.63,17.15,10.11
209,51.12,17.58,19.84,11.47
211,46.3,16.27,23.19,14.24
213,40.57,14.77,27.45,17.21
215,36.48,12.92,30.5,20.1
217,31.02,11.44,34.66,22.88
219,25.51,9.25,37.83,27.42
221,59.69,25.97,9.68,4.66
223,59.55,23.12,11.81,5.53
225,57.05,22.27,14.14,6.54
227,53.85,20.84,17.21,8.1
229,50.05,19.9,19.85,10.2
231,45.01,18.62,23.07,13.3
233,40.2,17.38,26.62,15.8
235,35.78,14.87,30.77,18.57
237,30.99,12.97,34.77,21.28
239,26.15,10.2,38.92,24.72
241,22.74,8.95,42.41,25.9
243,56.32,25.97,12.99,4.72
245,53.3,24.41,15.68,6.61
247,50.27,23.21,18.55,7.97
249,47.06,20.95,21.55,10.43
251,42.2,20.1,25.02,12.68
253,38.54,17.99,29.07,14.4
255,32.92,15.89,33.51,17.68
257,29.09,13.49,37.62,19.8
259,23.91,11.66,41.07,23.36
261,53.29,29.34,12.59,4.78
263,50.68,27.88,15.51,5.93
265,48.81,25.28,18.51,7.41
267,44.95,24.25,21.46,9.34
269,41.58,22.53,25.56,10.33
271,37.53,20.03,29.29,13.15
273,32.53,18.45,33.53,15.49
275,28.4,15.6,38.16,17.83
277,25.01,12.21,42.02,20.76
279,21.16,10.84,46.23,21.77
281,47.32,29.95,16.68,6.05
283,44.55,28.1,20.17,7.18
285,41.8,26.03,23.19,8.99
287,37.67,24.88,26.81,10.64
289,34.53,21.38,32.1,11.99
291,30.87,18.83,35.6,14.7
293,27.3,17.25,40.31,15.15
295,23.74,13.43,44.72,18.11
297,44.61,32.34,17.81,5.24
299,42.06,30.12,21.6,6.21
301,38.39,28.29,24.98,8.34
303,35.6,26.04,28.77,9.59
305,32.29,22.49,33.63,11.59
307,27.39,21.05,37.94,13.62
309,24.9,16.36,43.79,14.95
311,21.13,13.8,48.12,16.95
313,37.34,33.32,22.93,6.42
315,34.69,31.13,26.89,7.29
317,32.29,27.32,31.27,9.12
319,28.61,24.31,36.02,11.05
321,25.91,21.43,40.28,12.38
323,22.77,17.97,45.34,13.92
325,34.41,34.86,24.34,6.39
327,32.03,32.03,28.37,7.56
329,29.53,28.64,33.18,8.65
331,27.18,26.17,37.34,9.31
333,24.12,21.81,42.89,11.18
335,21.98,17.88,47.48,12.67
337,28.85,32.63,31.08,7.44
339,25.46,29.65,36.37,8.51
341,23.13,25.31,41.44,10.12
342,22.8,22.8,44.14,10.27