File: Burgel/15453660/Composition_Dataset/ML_5_near-equiatomic_Ni-Pd-Pt-Ru_EDX.csv
Index,Ni,Pd,Pt,Ru
1,46.2,19.49,7.9,26.41
3,41.44,17.9,8.74,31.92
5,36.25,16.54,9.88,37.32
7,31.9,15.07,11.01,42.02
9,26.88,12.2,12.4,48.51
11,21.35,12.07,13.13,53.45
13,43.1,21.92,8.77,26.21
15,39.63,19.97,9.74,30.66
17,34.83,18.2,10.73,36.24
19,30.97,16.05,12.05,40.93
21,25.91,14.27,13.5,46.32
23,22.1,12.71,13.98,51.21
25,45.85,26.02,7.88,20.24
27,41.77,24.36,9.25,24.63
29,38.52,21.24,10.51,29.74
31,33.23,20.18,11.9,34.69
33,29.34,18.04,12.91,39.7
35,24.99,15.21,14.49,45.31
37,20.15,13.44,15.66,50.75
39,15.93,12.13,16.64,55.31
41,44.24,28.62,8.71,18.42
43,40.29,26.63,9.62,23.46
45,36.29,23.98,11.05,28.68
47,32.43,21.54,12.56,33.47
49,28.17,19.42,14.22,38.2
51,23.83,16.99,15.57,43.61
53,18.85,14.79,17.2,49.16
55,15.15,11.94,18.44,54.47
57,43.81,33.47,8.23,14.49
59,41.39,31.11,9.18,18.32
61,37.65,28.62,10.91,22.83
63,34.17,26.08,12.03,27.73
65,30.32,23.95,13.71,32.02
67,26.86,20.66,15.22,37.27
69,23.15,18.06,17.07,41.72
71,18.46,16.0,18.5,47.03
73,14.27,14.09,20.11,51.53
75,11.94,11.27,20.91,55.88
77,40.07,35.15,8.9,15.87
79,37.23,32.23,10.68,19.87
81,34.77,29.7,11.9,23.63
83,31.57,26.87,13.68,27.89
85,26.34,24.32,15.49,33.86
87,22.9,21.49,17.41,38.2
89,19.11,19.14,18.69,43.06
91,16.12,15.84,20.51,47.53
93,12.1,13.75,22.25,51.9
95,40.39,40.88,7.72,11.01
97,37.71,37.96,9.6,14.74
99,35.88,34.44,11.34,18.35
101,32.46,31.73,12.75,23.07
103,28.61,29.33,14.51,27.55
105,25.4,26.86,16.41,31.33
107,21.51,23.48,18.56,36.45
109,18.27,20.86,19.98,40.88
111,15.05,16.74,21.93,46.27
113,11.22,14.75,23.96,50.07
115,9.2,12.02,25.22,53.56
117,36.09,42.13,9.31,12.47
119,34.21,39.2,10.99,15.61
121,31.22,35.99,12.84,19.95
123,28.7,32.66,14.64,24.01
125,25.71,29.67,16.6,28.01
127,22.48,26.57,18.29,32.66
129,18.73,23.71,20.42,37.14
131,15.92,20.63,22.25,41.2
133,13.05,16.52,23.81,46.62
135,10.65,13.54,26.23,49.58
137,34.79,46.12,8.79,10.29
139,33.51,43.09,10.02,13.38
141,30.69,39.98,12.37,16.96
143,27.82,36.9,14.29,20.98
145,25.64,33.83,16.22,24.3
147,22.78,30.52,18.16,28.54
149,19.3,26.81,20.52,33.37
151,16.17,24.07,22.68,37.08
153,13.52,20.07,24.53,41.88
155,10.8,16.67,26.9,45.62
157,9.28,13.99,28.47,48.26
159,31.52,47.73,9.8,10.95
161,30.07,44.17,11.94,13.82
163,27.52,40.99,14.13,17.36
165,25.05,37.52,15.99,21.44
167,22.34,34.6,18.27,24.79
169,18.73,30.76,20.62,29.89
171,16.55,27.41,22.64,33.4
173,13.04,23.89,25.26,37.81
175,11.2,19.56,27.44,41.8
177,9.2,15.91,29.46,45.42
179,29.8,51.93,9.06,9.21
181,28.59,47.93,11.48,12.0
183,26.77,45.12,13.61,14.5
185,24.06,41.66,16.0,18.29
187,21.66,38.95,18.15,21.23
189,19.35,34.61,20.52,25.52
191,16.16,31.66,23.02,29.16
193,13.51,26.39,25.66,34.44
195,11.22,22.44,28.27,38.07
197,9.57,18.48,30.29,41.66
199,7.31,15.42,33.02,44.25
201,27.33,52.35,10.81,9.51
203,25.35,49.03,12.87,12.75
205,23.52,45.82,15.26,15.4
207,21.47,41.9,17.47,19.17
209,18.51,38.69,20.22,22.58
211,16.42,35.01,22.69,25.89
213,13.51,30.77,25.1,30.62
215,11.71,26.73,27.96,33.6
217,9.94,22.11,30.99,36.96
219,7.81,17.97,33.44,40.79
221,24.75,56.96,9.77,8.52
223,24.0,53.07,12.24,10.69
225,21.91,50.35,14.81,12.93
227,21.0,45.97,17.19,15.85
229,18.57,42.68,19.6,19.15
231,15.06,39.02,22.65,23.27
233,13.57,35.07,25.6,25.76
235,11.26,29.91,28.44,30.39
237,9.58,25.01,31.5,33.92
239,8.49,20.52,34.31,36.68
241,7.13,17.19,37.14,38.54
243,20.86,56.01,12.92,10.2
245,20.33,51.94,15.45,12.27
247,18.75,48.59,17.72,14.93
249,16.45,45.8,20.65,17.11
251,14.87,41.16,23.69,20.28
253,12.65,36.71,26.7,23.94
255,10.42,32.24,29.36,27.98
257,8.59,26.81,33.47,31.14
259,7.2,22.23,36.23,34.34
261,19.43,61.22,11.43,7.91
263,18.36,57.09,14.79,9.77
265,16.76,53.56,17.06,12.63
267,15.76,49.21,19.96,15.07
269,14.29,45.22,22.88,17.6
271,13.34,40.09,25.72,20.85
273,11.04,35.88,29.45,23.63
275,9.62,30.95,32.8,26.62
277,8.51,25.82,36.2,29.47
279,6.51,20.89,40.1,32.49
281,16.49,58.77,15.18,9.56
283,15.34,55.6,17.7,11.36
285,14.42,51.37,20.72,13.49
287,12.31,48.03,23.19,16.47
289,11.13,42.38,26.75,19.74
291,9.98,38.32,29.91,21.8
293,8.23,32.95,33.9,24.92
295,6.57,27.01,38.5,27.92
297,14.62,61.89,15.08,8.41
299,13.63,57.48,18.23,10.66
301,12.67,53.9,21.11,12.32
303,10.91,50.1,24.64,14.34
305,9.57,45.13,27.74,17.56
307,9.0,39.36,32.13,19.51
309,7.67,33.63,36.08,22.62
311,7.18,27.79,40.25,24.79
313,13.0,59.95,17.93,9.11
315,10.85,56.19,21.41,11.55
317,9.55,51.17,24.73,14.54
319,9.14,46.71,28.1,16.06
321,7.74,41.73,32.43,18.1
323,7.41,35.21,37.38,20.0
325,10.71,62.05,18.81,8.44
327,9.86,57.83,22.27,10.04
329,8.76,53.26,25.71,12.28
331,8.75,48.09,29.18,13.98
333,7.77,42.56,33.74,15.93
335,7.22,36.2,38.06,18.52
337,8.74,57.88,24.08,9.3
339,7.62,52.9,27.86,11.61
341,8.28,46.69,31.86,13.17
342,6.62,44.26,34.77,14.36