File: Burgel/15453660/Composition_Dataset/ML_6_Ru-rich_Ni-Pd-Pt-Ru_EDX.csv
Index,Ni,Pd,Pt,Ru
1,21.8,4.73,9.34,64.13
3,18.33,3.79,9.06,68.82
5,14.44,3.09,9.21,73.26
7,12.33,2.41,9.17,76.09
9,10.44,2.43,8.95,78.18
11,8.11,1.93,8.94,81.02
13,21.71,5.3,10.3,62.69
15,16.77,4.57,10.37,68.29
17,14.63,3.26,10.22,71.89
19,11.53,3.36,10.32,74.79
21,9.56,1.97,10.29,78.18
23,7.86,2.04,9.89,80.22
25,25.64,7.19,11.07,56.09
27,20.14,6.02,11.13,62.71
29,17.02,4.68,11.4,66.9
31,14.34,3.61,11.28,70.78
33,11.34,3.34,11.45,73.88
35,10.1,2.54,11.26,76.11
37,7.63,2.47,11.01,78.9
39,5.9,1.66,10.9,81.54
41,23.65,7.96,12.02,56.37
43,19.85,6.48,12.24,61.43
45,16.03,5.46,12.18,66.32
47,13.16,4.17,12.41,70.25
49,11.08,4.03,12.39,72.5
51,9.17,2.76,12.57,75.5
53,7.56,1.92,12.14,78.38
55,6.19,2.06,12.0,79.75
57,27.51,10.59,12.89,49.01
59,23.24,8.74,12.97,55.05
61,19.02,6.62,13.57,60.79
63,16.02,5.6,13.42,64.96
65,13.06,5.01,13.65,68.28
67,10.71,3.52,13.65,72.12
69,8.76,3.43,13.85,73.95
71,7.16,2.14,13.59,77.11
73,5.72,1.81,13.45,79.02
75,5.04,1.72,12.8,80.44
77,24.56,9.89,14.22,51.32
79,19.9,7.8,14.58,57.71
81,16.76,6.61,14.82,61.81
83,13.57,5.54,14.77,66.12
85,11.51,4.65,14.86,68.98
87,9.43,3.88,14.92,71.77
89,7.65,3.17,15.19,74.0
91,6.06,2.66,14.65,76.63
93,5.38,1.51,14.55,78.55
95,26.43,13.24,15.06,45.27
97,22.95,11.49,15.74,49.81
99,19.36,9.03,16.23,55.38
101,15.53,7.14,16.06,61.27
103,13.13,6.1,15.94,64.83
105,11.17,4.98,16.07,67.78
107,9.01,3.88,16.39,70.72
109,7.26,2.96,16.33,73.45
111,5.9,2.38,16.15,75.57
113,4.66,2.02,15.88,77.45
115,4.11,1.13,15.57,79.19
117,24.03,12.44,17.02,46.52
119,19.68,10.63,17.17,52.51
121,16.53,8.74,17.25,57.48
123,13.74,7.22,17.64,61.4
125,11.61,6.06,17.56,64.76
127,10.05,4.73,17.22,68.0
129,7.78,4.03,17.63,70.56
131,6.42,3.43,17.39,72.76
133,5.35,2.74,17.44,74.47
135,4.41,2.46,16.96,76.16
137,25.1,14.27,17.57,43.06
139,21.57,12.16,18.53,47.75
141,16.94,10.48,19.88,52.71
143,14.62,8.36,18.88,58.14
145,12.7,7.15,19.34,60.8
147,10.43,5.54,18.99,65.04
149,8.09,5.07,19.02,67.83
151,6.83,3.81,19.04,70.31
153,5.68,3.41,19.04,71.87
155,4.67,2.17,19.0,74.16
157,4.06,2.21,18.13,75.61
159,21.48,14.96,19.25,44.31
161,18.86,12.55,20.46,48.13
163,14.85,9.77,21.05,54.33
165,12.01,8.46,20.67,58.86
167,10.16,7.57,20.54,61.74
169,8.49,5.59,20.94,64.98
171,7.21,4.44,20.61,67.74
173,5.64,3.56,20.63,70.17
175,4.93,2.73,20.68,71.66
177,4.52,2.22,20.25,73.01
179,20.18,18.3,20.65,40.88
181,18.14,14.25,22.2,45.42
183,15.35,12.62,23.01,49.02
185,12.59,9.7,22.74,54.97
187,11.12,8.15,22.25,58.48
189,9.3,6.71,22.49,61.5
191,7.51,5.95,22.25,64.28
193,6.17,4.65,22.16,67.01
195,5.25,3.59,22.46,68.7
197,4.84,2.87,22.09,70.2
199,3.81,2.24,21.83,72.12
201,17.73,16.74,23.57,41.96
203,16.0,14.15,23.9,45.95
205,13.94,11.79,24.61,49.67
207,11.02,9.82,24.54,54.63
209,9.23,8.03,24.38,58.36
211,8.33,6.57,24.04,61.05
213,6.42,5.47,24.12,63.99
215,5.77,4.46,23.72,66.05
217,4.64,2.96,24.16,68.24
219,4.51,2.69,23.98,68.82
221,18.15,20.09,22.86,38.9
223,15.32,17.23,25.6,41.85
225,13.07,13.65,26.45,46.83
227,11.45,11.15,26.68,50.72
229,9.98,9.81,26.35,53.86
231,8.65,8.23,26.32,56.79
233,6.92,6.18,26.46,60.43
235,5.61,5.27,26.26,62.86
237,5.28,3.74,26.48,64.5
239,4.82,3.21,26.27,65.7
241,3.94,2.33,26.04,67.69
243,15.22,18.11,26.32,40.35
245,13.8,14.63,28.57,43.01
247,10.68,11.99,28.9,48.44
249,9.47,9.73,28.83,51.97
251,7.73,8.17,28.6,55.5
253,6.61,6.61,28.88,57.91
255,5.86,5.37,28.85,59.92
257,5.04,3.87,28.97,62.11
259,4.58,3.4,28.73,63.28
261,14.17,21.06,27.67,37.1
263,13.01,16.14,29.68,41.17
265,10.85,14.19,30.78,44.17
267,9.53,11.98,31.1,47.38
269,7.84,10.3,31.34,50.52
271,6.81,7.82,31.06,54.31
273,5.93,6.06,31.13,56.88
275,4.91,5.25,30.95,58.9
277,5.28,3.55,30.72,60.45
279,4.58,3.1,31.16,61.15
281,11.89,18.39,31.26,38.47
283,9.54,15.22,33.59,41.65
285,9.09,12.95,33.69,44.27
287,7.97,9.82,33.75,48.46
289,7.17,7.93,33.63,51.27
291,5.77,6.37,33.84,54.01
293,5.73,5.12,33.56,55.59
295,4.28,3.86,34.34,57.52
297,11.13,18.83,33.83,36.21
299,9.61,15.96,34.78,39.65
301,8.86,13.51,35.06,42.56
303,8.27,10.93,36.0,44.8
305,6.49,8.74,36.04,48.74
307,6.03,7.38,35.87,50.72
309,5.63,5.7,36.89,51.78
311,5.18,4.58,36.72,53.52
313,9.35,16.82,37.04,36.79
315,8.1,13.96,38.18,39.76
317,7.25,11.86,38.39,42.51
319,6.27,9.29,39.13,45.3
321,6.51,7.1,39.57,46.83
323,5.45,5.47,40.35,48.73
325,9.08,16.48,39.23,35.21
327,7.63,13.82,40.93,37.62
329,7.32,11.4,41.39,39.89
331,6.37,9.59,41.91,42.13
333,5.42,7.1,43.5,43.98
335,5.17,5.75,43.65,45.43
337,7.52,13.12,42.8,36.57
339,6.48,11.3,45.07,37.15
341,5.78,8.4,46.11,39.71
342,5.19,7.32,46.23,41.25