File: Burgel/15453660/Composition_Dataset/ML_7_Ru-rich_Ir-Pd-Pt-Ru_EDX.csv
Index,Ir,Pd,Pt,Ru
1,27.32,3.62,8.12,60.94
3,22.68,3.45,7.98,65.89
5,19.5,2.86,7.84,69.81
7,15.4,1.74,8.01,74.85
9,13.38,2.56,8.33,75.73
11,10.44,2.35,8.09,79.13
13,26.47,4.74,8.59,60.2
15,22.27,2.98,8.81,65.94
17,19.26,3.28,8.79,68.66
19,15.8,2.68,9.12,72.4
21,13.48,1.91,8.79,75.81
23,10.83,1.78,9.23,78.16
25,30.95,5.61,9.3,54.14
27,24.99,4.33,9.76,60.92
29,22.45,4.15,9.73,63.67
31,17.9,3.47,9.93,68.7
33,15.06,2.88,10.35,71.72
35,12.63,2.57,10.41,74.39
37,9.43,2.14,10.27,78.15
39,7.35,2.04,10.34,80.27
41,30.39,6.22,9.69,53.71
43,25.42,5.15,10.5,58.93
45,20.39,4.27,10.93,64.41
47,17.47,4.02,10.98,67.53
49,14.56,3.14,11.29,71.01
51,12.38,2.23,11.43,73.95
53,9.59,1.66,11.5,77.25
55,8.31,1.85,11.56,78.28
57,35.56,6.2,11.29,46.95
59,28.71,5.57,11.71,54.01
61,24.01,4.71,11.89,59.39
63,20.05,4.11,12.16,63.68
65,17.24,3.62,12.41,66.73
67,14.71,3.02,12.54,69.73
69,12.64,2.68,12.39,72.29
71,9.84,2.27,12.48,75.41
73,7.33,1.38,12.65,78.64
75,6.07,1.39,12.57,79.98
77,31.03,6.45,12.82,49.7
79,26.55,6.01,12.74,54.7
81,22.15,5.31,12.76,59.77
83,19.16,4.2,13.34,63.31
85,15.72,3.97,13.33,66.98
87,13.19,3.37,13.35,70.08
89,11.1,2.62,13.81,72.47
91,8.63,2.32,13.81,75.23
93,5.55,2.39,14.0,78.06
95,36.43,8.62,12.14,42.81
97,29.94,7.33,13.48,49.25
99,25.66,5.97,13.92,54.45
101,21.35,5.46,14.16,59.03
103,17.85,4.9,14.52,62.72
105,15.75,4.04,14.33,65.88
107,12.81,3.6,14.76,68.83
109,9.93,2.76,15.12,72.19
111,8.24,2.04,15.09,74.63
113,6.43,2.07,15.27,76.22
115,4.34,1.66,15.43,78.57
117,31.25,9.09,14.58,45.08
119,26.63,8.51,15.22,49.64
121,22.21,6.96,15.59,55.23
123,18.88,5.39,16.12,59.61
125,16.48,4.49,15.61,63.42
127,13.7,4.29,15.97,66.05
129,10.55,3.0,16.58,69.88
131,8.52,2.53,16.41,72.54
133,7.21,3.12,16.21,73.45
135,5.5,2.28,16.39,75.83
137,32.02,10.08,15.89,42.02
139,27.56,9.26,16.31,46.87
141,23.27,7.9,17.47,51.35
143,20.4,6.43,17.05,56.12
145,16.67,6.27,17.0,60.07
147,14.15,5.33,17.69,62.83
149,11.96,3.98,17.51,66.55
151,9.58,3.19,17.98,69.24
153,7.37,2.65,18.42,71.56
155,5.37,2.28,18.38,73.97
157,4.5,2.34,17.93,75.22
159,29.61,10.43,17.94,42.01
161,25.09,8.49,18.55,47.88
163,20.96,7.69,18.51,52.84
165,18.09,6.75,18.63,56.53
167,15.13,5.44,19.17,60.26
169,12.36,4.9,19.04,63.7
171,10.19,3.92,19.53,66.35
173,8.04,3.01,19.5,69.45
175,6.18,2.47,19.81,71.54
177,5.11,1.91,20.33,72.65
179,29.81,11.73,18.61,39.86
181,26.02,10.14,19.76,44.07
183,22.41,8.58,20.31,48.69
185,18.82,7.19,20.61,53.38
187,15.52,6.36,20.98,57.14
189,13.35,4.92,20.7,61.03
191,10.33,5.01,20.97,63.69
193,8.84,3.8,21.2,66.16
195,6.5,3.49,21.28,68.74
197,4.69,2.56,22.15,70.6
199,4.03,1.62,22.12,72.23
201,26.43,11.53,21.11,40.93
203,23.13,9.89,21.9,45.08
205,19.39,8.65,22.28,49.68
207,17.6,6.99,22.3,53.12
209,14.22,5.87,22.54,57.37
211,12.11,5.21,22.47,60.21
213,9.54,4.66,22.91,62.89
215,7.15,3.59,23.49,65.77
217,6.04,3.44,23.23,67.29
219,4.63,2.2,23.73,69.44
221,26.61,13.92,22.11,37.36
223,23.83,11.72,23.24,41.21
225,20.31,9.52,24.29,45.87
227,16.55,9.32,24.65,49.48
229,13.92,7.59,24.52,53.97
231,12.6,5.06,24.79,57.55
233,9.95,5.05,25.01,59.99
235,7.53,4.48,25.09,62.9
237,6.47,3.94,25.19,64.4
239,4.63,2.76,26.33,66.28
241,3.74,2.01,26.63,67.62
243,22.9,11.76,25.65,39.69
245,19.32,10.28,26.42,43.98
247,17.8,8.53,26.38,47.29
249,13.43,8.2,27.07,51.3
251,11.03,6.34,27.2,55.44
253,8.47,5.66,27.61,58.26
255,7.11,4.78,27.46,60.65
257,6.08,3.6,27.93,62.39
259,4.41,3.5,28.92,63.17
261,22.13,14.51,25.78,37.58
263,18.84,11.55,27.74,41.87
265,16.53,10.74,28.37,44.35
267,14.05,9.74,28.47,47.75
269,10.94,6.62,29.61,52.83
271,9.5,6.67,29.93,53.9
273,8.04,5.09,30.08,56.78
275,6.77,4.43,30.35,58.44
277,4.54,3.4,31.01,61.06
279,3.09,2.48,32.68,61.75
281,16.52,14.39,30.17,38.92
283,15.22,11.14,31.49,42.15
285,12.57,10.07,32.02,45.34
287,10.81,8.25,32.47,48.47
289,9.15,6.54,32.77,51.55
291,7.61,4.76,33.2,54.43
293,5.18,4.12,33.46,57.24
295,6.12,2.9,33.88,57.1
297,15.99,13.41,31.53,39.08
299,14.35,12.57,32.97,40.11
301,11.85,10.81,34.2,43.14
303,9.47,9.11,34.86,46.56
305,8.27,7.63,35.42,48.68
307,7.53,5.8,35.07,51.61
309,5.83,5.03,36.38,52.76
311,3.8,3.72,37.59,54.89
313,12.23,13.17,35.43,39.17
315,10.98,10.63,37.26,41.13
317,9.33,9.28,37.39,44.0
319,7.57,7.72,38.12,46.58
321,7.19,5.71,39.03,48.08
323,5.46,5.16,40.36,49.01
325,11.73,14.44,38.15,35.68
327,10.83,12.27,38.67,38.24
329,8.88,9.37,40.23,41.52
331,8.57,7.63,40.71,43.09
333,6.26,6.16,41.51,46.07
335,5.23,5.04,43.67,46.06
337,9.23,10.57,42.29,37.91
339,6.46,9.94,43.66,39.94
341,6.58,6.64,44.99,41.79
342,5.54,6.45,46.48,41.52