File: Burgel/15453660/Composition_Dataset/ML_8_Pt-rich_Ir-Pd-Pt-Ru_EDX.csv
Index,Ir,Pd,Pt,Ru
1,35.96,3.2,47.59,13.25
3,31.03,3.55,50.07,15.35
5,27.21,2.65,53.85,16.29
7,22.29,2.34,56.57,18.8
9,18.98,2.11,58.5,20.4
11,16.7,0.96,61.13,21.22
13,33.95,3.96,49.67,12.43
15,29.13,3.71,52.13,15.03
17,24.16,3.07,56.06,16.71
19,22.01,2.72,58.82,16.45
21,18.65,1.75,60.4,19.2
23,15.4,1.72,62.42,20.46
25,34.46,5.64,49.93,9.97
27,29.74,4.33,53.84,12.09
29,26.43,3.43,56.53,13.61
31,22.92,3.5,58.63,14.96
33,19.56,2.42,62.05,15.97
35,17.42,2.55,62.89,17.15
37,13.51,2.43,65.22,18.84
39,10.83,1.77,66.79,20.62
41,32.24,5.57,52.62,9.57
43,28.12,4.07,57.25,10.56
45,23.97,3.41,59.75,12.87
47,20.52,2.92,62.48,14.08
49,18.08,2.72,64.44,14.76
51,15.99,1.33,65.99,16.69
53,12.64,1.83,68.78,16.75
55,9.74,1.26,69.51,19.5
57,33.77,5.46,52.51,8.27
59,29.86,5.63,54.89,9.62
61,25.32,4.47,59.25,10.96
63,22.68,3.95,61.55,11.81
65,18.8,3.13,64.75,13.32
67,16.46,2.6,66.33,14.61
69,14.65,1.27,69.16,14.92
71,12.43,1.82,69.13,16.62
73,9.5,1.64,72.4,16.46
75,7.78,0.93,73.43,17.85
77,28.26,6.12,56.75,8.87
79,26.97,4.83,58.63,9.58
81,22.04,4.25,63.37,10.34
83,20.32,3.13,65.41,11.13
85,15.93,3.59,67.79,12.69
87,13.39,2.07,70.72,13.81
89,12.52,1.94,71.34,14.2
91,9.42,2.04,73.41,15.13
93,7.7,1.22,75.82,15.26
95,30.11,5.99,57.01,6.89
97,27.2,5.95,59.01,7.84
99,23.64,5.19,63.45,7.72
101,19.85,4.29,66.28,9.58
103,17.82,3.93,67.98,10.26
105,14.83,3.11,70.38,11.68
107,13.5,2.57,70.86,13.07
109,11.05,2.08,73.75,13.12
111,8.2,1.71,75.33,14.75
113,6.52,1.33,77.2,14.94
115,4.29,-0.24,78.78,17.17
117,27.67,7.0,58.86,6.47
119,23.2,5.9,62.85,8.05
121,19.69,5.36,65.05,9.9
123,16.92,4.38,69.01,9.69
125,16.06,3.35,70.18,10.4
127,13.69,2.01,73.15,11.15
129,11.18,2.2,74.99,11.64
131,8.71,1.75,76.15,13.39
133,7.71,1.07,78.07,13.15
135,4.91,1.11,80.17,13.81
137,27.61,7.14,59.9,5.35
139,23.09,6.21,63.89,6.8
141,19.81,5.86,65.99,8.33
143,17.39,4.13,70.0,8.48
145,15.79,3.76,71.36,9.1
147,12.97,2.56,73.76,10.7
149,10.53,2.38,76.4,10.69
151,9.42,2.11,77.5,10.97
153,6.91,1.19,80.3,11.6
155,5.2,1.42,80.43,12.95
157,4.48,0.75,81.12,13.64
159,22.39,6.64,64.41,6.56
161,19.62,6.11,67.51,6.76
163,17.07,4.93,70.52,7.48
165,15.0,4.14,72.05,8.8
167,12.54,4.13,74.0,9.33
169,10.86,2.56,76.85,9.73
171,9.11,2.31,78.97,9.61
173,6.93,1.62,80.3,11.15
175,4.93,1.54,82.53,11.0
177,4.0,1.23,83.04,11.73
179,22.52,7.61,65.08,4.79
181,19.53,6.71,67.5,6.25
183,16.23,5.36,71.43,6.99
185,14.46,4.68,73.61,7.26
187,12.21,4.06,75.6,8.13
189,10.63,3.3,77.22,8.85
191,8.29,3.08,78.92,9.71
193,7.29,1.81,80.62,10.28
195,4.98,1.5,83.68,9.84
197,4.13,1.65,83.39,10.83
199,2.94,0.45,85.73,10.88
201,21.25,6.29,67.25,5.21
203,17.2,6.33,71.05,5.42
205,15.16,5.01,74.6,5.23
207,12.37,3.89,77.38,6.36
209,10.57,3.51,78.37,7.55
211,8.47,2.78,80.48,8.27
213,7.59,2.23,81.39,8.79
215,5.89,1.35,83.29,9.47
217,4.89,1.46,84.21,9.44
219,3.05,0.7,86.46,9.79
221,18.88,8.2,68.67,4.25
223,15.58,7.07,71.77,5.58
225,13.29,5.41,75.61,5.69
227,11.66,5.03,76.98,6.32
229,9.6,3.81,80.37,6.22
231,8.19,3.39,81.08,7.34
233,7.63,2.48,82.09,7.8
235,6.11,2.12,83.9,7.88
237,4.64,1.3,86.05,8.02
239,4.02,1.53,85.75,8.7
241,3.08,1.01,87.3,8.61
243,14.45,6.5,74.76,4.28
245,12.17,5.82,77.17,4.84
247,9.87,4.38,80.27,5.49
249,8.43,3.65,81.72,6.2
251,7.14,3.1,83.72,6.05
253,6.11,2.94,84.56,6.38
255,5.05,2.36,85.57,7.01
257,3.77,1.19,87.62,7.41
259,3.51,1.02,87.99,7.48
261,13.87,7.42,74.76,3.96
263,11.94,6.18,77.68,4.19
265,9.88,5.3,79.65,5.16
267,8.62,4.13,81.76,5.5
269,7.49,3.96,82.04,6.5
271,4.96,3.53,85.59,5.92
273,4.41,2.37,86.85,6.38
275,4.49,1.45,87.33,6.73
277,2.6,1.28,89.02,7.1
279,1.82,1.33,90.35,6.49
281,10.06,7.2,78.58,4.16
283,9.45,5.44,80.55,4.56
285,7.71,4.55,82.58,5.16
287,7.36,3.26,84.53,4.85
289,4.57,3.2,86.18,6.05
291,4.46,2.5,87.49,5.55
293,3.85,1.67,88.26,6.21
295,2.73,1.62,89.51,6.14
297,8.77,7.3,80.3,3.63
299,7.76,5.02,82.7,4.52
301,6.62,4.45,84.27,4.66
303,4.93,3.53,86.67,4.87
305,5.4,2.86,87.73,4.02
307,4.6,2.72,87.91,4.78
309,3.02,1.3,90.67,5.0
311,2.63,1.22,90.82,5.33
313,7.53,5.34,83.08,4.04
315,5.37,5.17,85.46,4.0
317,4.22,3.75,87.81,4.22
319,3.74,3.36,88.67,4.22
321,2.74,2.77,89.82,4.68
323,2.05,1.12,92.21,4.61
325,4.62,5.92,85.99,3.48
327,5.23,4.13,86.81,3.83
329,4.21,3.86,88.36,3.57
331,3.33,2.86,89.93,3.88
333,2.91,2.18,91.12,3.79
335,2.86,2.15,91.08,3.91
337,3.82,3.64,89.37,3.17
339,3.32,3.02,89.69,3.97
341,3.2,2.31,91.07,3.41
342,2.85,1.79,91.89,3.47