File: Burgel/15453660/Composition_Dataset/ML_9_Pd-rich_Ir-Pd-Pt-Ru_EDX.csv
Index,Ir,Pd,Pt,Ru
1,25.59,51.93,6.55,15.94
3,24.97,47.51,7.82,19.7
5,23.37,43.3,8.49,24.84
7,21.65,38.5,10.59,29.27
9,20.24,33.81,11.88,34.07
11,17.85,29.46,13.21,39.48
13,23.72,54.45,7.27,14.57
15,22.64,50.5,7.64,19.22
17,20.6,46.28,9.6,23.52
19,19.86,41.01,11.23,27.9
21,18.74,36.85,12.25,32.15
23,16.78,31.77,14.17,37.28
25,22.16,61.49,5.94,10.41
27,20.78,58.66,7.08,13.49
29,20.35,53.44,8.22,17.98
31,19.43,48.61,10.16,21.8
33,18.83,44.05,11.35,25.77
35,17.05,38.82,13.32,30.82
37,16.17,33.16,15.24,35.43
39,13.43,29.18,16.4,40.99
41,19.46,64.65,6.09,9.81
43,19.05,60.76,6.9,13.29
45,18.85,57.32,8.9,14.93
47,17.53,51.64,10.89,19.94
49,17.49,46.62,12.03,23.86
51,17.02,40.56,13.82,28.6
53,15.17,35.83,15.93,33.07
55,13.3,29.79,18.21,38.7
57,17.51,69.89,5.1,7.5
59,18.01,66.66,6.12,9.21
61,17.07,62.68,7.49,12.77
63,17.99,58.39,9.11,14.51
65,15.59,54.33,10.83,19.25
67,15.52,49.22,12.77,22.5
69,15.95,42.32,14.36,27.37
71,13.35,37.82,17.18,31.65
73,12.16,32.05,19.37,36.43
75,9.86,27.36,20.37,42.42
77,16.11,70.6,5.85,7.44
79,15.59,67.45,7.15,9.81
81,15.76,63.19,8.41,12.64
83,15.45,59.33,9.8,15.42
85,15.17,54.02,11.84,18.97
87,13.87,48.75,14.04,23.34
89,13.13,43.28,16.66,26.93
91,12.37,36.24,18.82,32.56
93,10.15,31.16,21.46,37.23
95,13.96,75.29,5.12,5.64
97,14.43,72.72,6.02,6.83
99,14.72,68.99,7.48,8.81
101,13.31,66.26,9.09,11.34
103,13.74,60.84,10.35,15.07
105,13.34,56.48,12.25,17.93
107,13.51,50.87,14.56,21.06
109,12.2,45.53,17.01,25.25
111,11.3,38.93,19.55,30.22
113,9.8,32.9,22.3,35.01
115,8.63,27.08,24.42,39.86
117,13.38,75.33,5.73,5.56
119,13.15,72.84,6.76,7.25
121,12.79,69.17,8.27,9.77
123,13.11,65.55,9.81,11.53
125,13.01,60.82,11.42,14.74
127,12.87,55.76,13.35,18.03
129,12.17,49.92,16.21,21.7
131,10.68,43.91,18.87,26.54
133,9.99,37.03,21.8,31.18
135,8.73,31.16,24.65,35.46
137,11.66,78.37,5.34,4.63
139,11.71,76.1,6.22,5.98
141,12.27,72.57,7.87,7.29
143,12.28,68.48,9.35,9.89
145,11.92,65.07,10.85,12.17
147,10.96,60.49,13.06,15.49
149,10.61,55.12,15.24,19.03
151,10.37,49.18,17.69,22.76
153,9.63,42.46,20.86,27.05
155,8.46,35.79,24.66,31.09
157,6.52,29.98,27.28,36.22
159,10.89,78.79,5.5,4.82
161,10.71,76.28,6.96,6.05
163,11.19,72.03,8.88,7.91
165,10.48,69.13,10.12,10.26
167,10.66,64.88,12.23,12.23
169,9.67,61.02,14.42,14.89
171,9.48,54.25,17.37,18.91
173,9.55,47.12,20.43,22.9
175,7.66,41.0,23.74,27.6
177,6.99,34.51,27.15,31.35
179,8.97,81.46,5.45,4.11
181,10.11,78.51,6.57,4.8
183,10.18,75.52,7.94,6.36
185,9.94,71.94,9.66,8.47
187,9.76,68.26,11.63,10.35
189,9.21,64.58,13.82,12.39
191,9.59,58.68,15.97,15.76
193,8.35,52.91,18.92,19.82
195,8.65,46.56,22.52,22.27
197,6.34,38.74,27.36,27.56
199,6.7,31.66,31.06,30.58
201,8.62,81.06,6.09,4.24
203,8.88,78.49,7.57,5.06
205,9.2,75.25,9.04,6.51
207,8.7,71.98,10.85,8.47
209,8.88,67.98,12.72,10.42
211,8.51,63.72,14.8,12.97
213,7.57,58.27,18.22,15.94
215,6.56,51.59,21.71,20.14
217,7.2,43.52,25.27,24.0
219,5.96,35.99,30.36,27.69
221,7.26,83.88,5.38,3.48
223,8.32,80.58,6.75,4.34
225,7.38,79.03,8.46,5.13
227,7.68,75.19,10.25,6.88
229,8.09,71.64,11.65,8.62
231,7.78,67.86,14.04,10.31
233,7.38,63.08,16.68,12.87
235,6.7,56.12,20.69,16.49
237,6.63,48.97,24.21,20.18
239,6.43,41.25,28.81,23.51
241,6.09,34.02,32.56,27.33
243,6.31,83.03,7.05,3.6
245,7.16,79.75,8.39,4.7
247,7.15,76.48,10.34,6.04
249,6.8,73.04,12.33,7.83
251,6.64,69.43,14.37,9.56
253,6.31,64.63,17.25,11.8
255,6.41,57.64,20.57,15.37
257,5.91,50.57,25.85,17.67
259,4.85,43.77,29.92,21.47
261,5.77,84.78,6.07,3.38
263,6.03,82.61,7.74,3.62
265,5.26,80.06,9.7,4.98
267,5.58,76.71,11.22,6.49
269,5.83,73.0,13.8,7.37
271,5.16,68.63,16.29,9.92
273,5.51,62.8,19.62,12.08
275,5.66,55.45,24.01,14.88
277,4.02,49.49,28.91,17.58
279,3.87,39.34,34.75,22.04
281,4.81,83.74,7.73,3.72
283,5.25,80.25,9.63,4.87
285,4.62,78.33,11.5,5.55
287,5.41,74.39,13.45,6.75
289,5.63,69.13,16.51,8.74
291,5.31,63.52,20.19,10.98
293,5.0,56.64,24.79,13.57
295,4.52,48.86,30.26,16.36
297,4.2,85.0,7.74,3.06
299,4.63,81.82,9.51,4.04
301,4.51,78.95,11.9,4.64
303,4.86,75.25,13.93,5.96
305,4.96,70.12,17.07,7.85
307,4.85,64.11,20.91,10.13
309,4.49,57.87,25.88,11.75
311,3.98,49.41,30.94,15.68
313,3.87,82.84,9.69,3.6
315,3.74,80.29,11.72,4.25
317,3.95,75.67,14.17,6.21
319,3.74,71.63,17.44,7.2
321,3.02,66.21,21.93,8.84
323,3.88,58.68,26.96,10.48
325,2.95,83.85,9.6,3.61
327,3.23,80.79,12.09,3.89
329,3.35,76.87,14.58,5.2
331,3.17,72.09,17.78,6.96
333,3.04,66.23,22.49,8.24
335,3.04,58.76,28.18,10.02
337,3.37,79.21,13.42,4.01
339,3.01,75.03,16.76,5.19
341,2.98,70.15,20.86,6.01
342,3.18,65.7,23.66,7.46